 Energy(eV)     Ext_Z     Sca_Z     Ext_X     Sca_X
 442.801 9.57447 1.77418 8.28193 1.56035
 441.225 9.83807 1.8265 8.50063 1.60474
 439.66 10.1115 1.88071 8.72707 1.65067
 438.107 10.3951 1.9369 8.9616 1.69819
 436.564 10.6896 1.99517 9.20459 1.74738
 435.032 10.9953 2.05561 9.45645 1.79831
 433.511 11.3129 2.11834 9.71759 1.85108
 432 11.6431 2.18347 9.98848 1.90575
 430.5 11.9863 2.25111 10.2696 1.96243
 429.011 12.3434 2.3214 10.5614 2.02121
 427.532 12.7151 2.39447 10.8645 2.08219
 426.062 13.1021 2.47047 11.1794 2.14548
 424.603 13.5053 2.54955 11.5067 2.21119
 423.154 13.9256 2.63188 11.8472 2.27945
 421.715 14.3639 2.71763 12.2014 2.35039
 420.285 14.8213 2.807 12.5701 2.42415
 418.865 15.2988 2.90018 12.9541 2.50087
 417.455 15.7977 2.9974 13.3543 2.58072
 416.054 16.3192 3.09888 13.7715 2.66386
 414.663 16.8647 3.20488 14.2067 2.75047
 413.28 17.4356 3.31567 14.661 2.84075
 411.907 18.0336 3.43152 15.1354 2.9349
 410.544 18.6603 3.55277 15.6311 3.03315
 409.189 19.3175 3.67973 16.1494 3.13573
 407.843 20.0073 3.81277 16.6917 3.24289
 406.505 20.7318 3.95229 17.2595 3.35492
 405.177 21.4934 4.09871 17.8542 3.47211
 403.857 22.2945 4.25248 18.4778 3.59478
 402.546 23.138 4.41411 19.1319 3.72328
 401.243 24.0268 4.58413 19.8187 3.85796
 399.949 24.9642 4.76314 20.5403 3.99925
 398.663 25.9538 4.95177 21.2991 4.14757
 397.385 26.9995 5.15074 22.0976 4.30339
 396.115 28.1055 5.3608 22.9385 4.46723
 394.854 29.2765 5.58278 23.8251 4.63965
 393.6 30.5177 5.81763 24.7605 4.82125
 392.355 31.8347 6.06633 25.7484 5.0127
 391.117 33.2338 6.33001 26.7927 5.21473
 389.887 34.7219 6.60989 27.8978 5.42811
 388.665 36.3067 6.90733 29.0684 5.65373
 387.45 37.9965 7.22383 30.3098 5.89254
 386.243 39.801 7.56105 31.6278 6.14558
 385.044 41.7305 7.92084 33.0287 6.41401
 383.852 43.7968 8.30528 34.5195 6.69911
 382.667 46.0132 8.71667 36.1081 7.00228
 381.49 48.3943 9.15759 37.8032 7.32511
 380.319 50.9569 9.63096 39.6143 7.66932
 379.156 53.7198 10.14 41.5524 8.03686
 378 56.7043 10.6885 43.6294 8.42988
 376.851 59.9345 11.2806 45.8589 8.85082
 375.71 63.4383 11.9211 48.2561 9.30239
 374.574 67.2471 12.6154 50.8382 9.78765
 373.446 71.3975 13.3697 53.6244 10.3101
 372.325 75.9312 14.1913 56.637 10.8735
 371.21 80.897 15.0882 59.9009 11.4825
 370.102 86.3513 16.0703 63.4448 12.142
 369 92.3603 17.1485 67.3015 12.8579
 367.905 99.0018 18.336 71.5088 13.6369
 366.817 106.367 19.6481 76.1104 14.4864
 365.735 114.567 21.1029 81.157 15.4156
 364.659 123.73 22.722 86.7077 16.4346
 363.59 134.015 24.5313 92.8318 17.5555
 362.527 145.612 26.5619 99.6108 18.7925
 361.47 158.754 28.8516 107.141 20.1623
 360.419 173.73 31.4466 115.538 21.6847
 359.374 190.898 34.4038 124.94 23.3835
 358.336 210.709 37.7943 135.513 25.2871
 357.303 233.736 41.7072 147.459 27.4301
 356.276 260.72 46.2559 161.027 29.8546
 355.255 292.626 51.5861 176.523 32.6125
 354.24 330.74 57.8877 194.331 35.7682
 353.231 376.799 65.4116 214.932 39.4024
 352.228 433.2 74.4945 238.94 43.6175
 351.23 503.338 85.5963 267.148 48.5445
 350.238 592.143 99.3573 300.592 54.3538
 349.251 707.004 116.688 340.647 61.2696
 348.27 859.319 138.912 389.165 69.5916
 347.295 1066.94 168.002 448.69 79.7276
 346.324 1356.45 206.956 522.769 92.244
 345.36 1756.99 260.367 616.398 107.945
 344.4 2271.23 335.2 736.667 127.995
 343.446 2901.74 442.177 894.257 154.095
 342.498 3788.97 597.063 1106.19 188.816
 341.554 5115.59 813.797 1399.24 236.171
 340.616 6817.3 1070.13 1816.1 302.486
 339.683 8149.98 1238.76 2425.45 397.641
 338.754 7977.72 1150.68 3331.77 535.905
 337.831 6535.96 871.4 4657.18 731.682
 336.913 5066.77 604.62 6381.95 973.359
 336 4179.51 438.747 7898.64 1159.77
 335.092 3855.89 374.743 8053.75 1127.26
 334.189 3678.46 370.133 6784.57 896.658
 333.291 3158.75 348.227 5142.48 632.62
 332.397 2438.9 289.608 3809.76 423.637
 331.508 1838.47 226.535 2944.86 283.722
 330.624 1420.16 175.398 2492.18 200.137
 329.745 1142.26 136.993 2389.02 162.471
 328.87 963.475 108.481 2573.97 168.973
 328 860.747 87.4389 2803.35 208.712
 327.135 825.837 72.7508 2635.92 233.861
 326.274 849.256 64.713 2102.5 214.57
