 Energy(eV)     Ext/Sca_Zpol     Ext/Sca_Ypol     Ext/Sca_Xpol
 2.7 550.394 425.12 1292.19 1050.28 599.395 483.253
 2.71 565.573 436.814 1337.23 1087.27 615.972 496.806
 2.72 581.279 448.895 1384.28 1125.9 633.106 510.808
 2.73 597.534 461.38 1433.46 1166.27 650.822 525.28
 2.74 614.364 474.289 1484.88 1208.48 669.145 540.24
 2.75 631.798 487.639 1538.7 1252.63 688.102 555.71
 2.76 649.864 501.452 1595.04 1298.84 707.722 571.713
 2.77 668.593 515.747 1654.07 1347.24 728.034 588.274
 2.78 688.019 530.549 1715.96 1397.97 749.071 605.416
 2.79 708.176 545.88 1780.88 1451.17 770.866 623.167
 2.8 729.102 561.766 1849.03 1507 793.456 641.555
 2.81 750.837 578.235 1920.63 1565.63 816.877 660.609
 2.82 773.424 595.315 1995.89 1627.24 841.171 680.363
 2.83 796.909 613.036 2075.08 1692.05 866.379 700.849
 2.84 821.342 631.433 2158.46 1760.25 892.548 722.103
 2.85 846.775 650.538 2246.31 1832.1 919.726 744.163
 2.86 873.265 670.391 2338.97 1907.84 947.963 767.07
 2.87 900.873 691.029 2436.77 1987.75 977.316 790.867
 2.88 929.667 712.497 2540.1 2072.15 1007.84 815.599
 2.89 959.716 734.839 2649.36 2161.36 1039.6 841.315
 2.9 991.1 758.106 2765.01 2255.75 1072.66 868.068
 2.91 1023.9 782.348 2887.54 2355.71 1107.1 895.913
 2.92 1058.21 807.624 3017.5 2461.68 1142.99 924.91
 2.93 1094.12 833.994 3155.48 2574.14 1180.4 955.121
 2.94 1131.76 861.524 3302.14 2693.62 1219.43 986.617
 2.95 1171.22 890.285 3458.21 2820.7 1260.18 1019.47
 2.96 1212.65 920.354 3624.47 2956.02 1302.74 1053.76
 2.97 1256.19 951.815 3801.82 3100.29 1347.22 1089.56
 2.98 1301.99 984.758 3991.24 3254.29 1393.73 1126.98
 2.99 1350.23 1019.28 4193.82 3418.91 1442.41 1166.1
 3 1401.1 1055.5 4410.76 3595.1 1493.39 1207.04
 3.01 1454.81 1093.52 4643.42 3783.96 1546.81 1249.9
 3.02 1511.61 1133.48 4893.31 3986.67 1602.84 1294.81
 3.03 1571.77 1175.52 5162.12 4204.6 1661.65 1341.9
 3.04 1635.59 1219.79 5451.73 4439.25 1723.42 1391.32
 3.05 1703.42 1266.48 5764.28 4692.31 1788.35 1443.22
 3.06 1775.65 1315.77 6102.15 4965.7 1856.67 1497.77
 3.07 1852.74 1367.88 6468.06 5261.56 1928.62 1555.15
 3.08 1935.21 1423.06 6865.05 5582.31 2004.46 1615.57
 3.09 2023.68 1481.57 7296.58 5930.7 2084.48 1679.24
 3.1 2118.85 1543.73 7766.58 6309.85 2168.99 1746.4
 3.11 2221.58 1609.88 8279.5 6723.28 2258.34 1817.33
 3.12 2332.89 1680.44 8840.43 7174.99 2352.91 1892.29
 3.13 2454.01 1755.88 9455.15 7669.57 2453.11 1971.61
 3.14 2586.45 1836.75 10130.3 8212.21 2559.41 2055.64
 3.15 2732.08 1923.7 10873.3 8808.82 2672.32 2144.76
 3.16 2893.26 2017.52 11692.9 9466.16 2792.41 2239.4
 3.17 3073.03 2119.18 12598.8 10191.9 2920.31 2340.01
 3.18 3275.34 2229.85 13602.1 10994.7 3056.71 2447.13
 3.19 3505.44 2351.03 14715.6 11884.4 3202.41 2561.33
 3.2 3770.5 2484.68 15953.4 12871.9 3358.28 2683.27
 3.21 4080.5 2633.37 17331.2 13969.5 3525.31 2813.65
 3.22 4449.73 2800.59 18866.5 15190.3 3704.61 2953.29
 3.23 4899.2 2991.29 20577.9 16548.5 3897.44 3103.11
 3.24 5460.78 3212.61 22484.5 18058.4 4105.24 3264.12
 3.25 6184.2 3475.24 24604.8 19733.4 4329.62 3437.49
 3.26 7148.89 3795.6 26954.9 21584.7 4572.46 3624.54
 3.27 8482.98 4199.05 29544.6 23618 4835.88 3826.75
 3.28 10385.3 4722.88 32373 25829.8 5122.36 4045.84
 3.29 13109.8 5409.97 35420.4 28201.5 5434.76 4283.76
 3.3 16726.5 6256.37 38639.3 30691.1 5776.41 4542.75
 3.31 20302.5 7053.94 41942.1 33224.6 6151.24 4825.43
 3.32 21471.5 7349.42 45188.6 35685.8 6563.87 5134.78
 3.33 19420 7056.26 48179 37911.4 7019.8 5474.29
 3.34 16360.1 6649.58 50657 39694.6 7525.63 5848.04
 3.35 13992.4 6445.08 52334.3 40805.3 8089.33 6260.78
 3.36 12576 6472.18 52940 41030.4 8720.66 6718.08
 3.37 11897.3 6681.31 52289.3 40229 9431.67 7226.48
 3.38 11741.4 7031.16 50351.1 38384.3 10237.5 7793.6
 3.39 11971.8 7499.86 47286.6 35632.8 11157.2 8428.31
 3.4 12516.9 8080.19 43442.3 32255.3 12215.6 9140.69
 3.41 13350.4 8774.7 39306.5 28641 13445.2 9941.77
 3.42 14479 9592.15 35457.2 25244.8 14889.4 10842.5
 3.43 15937.3 10543.9 32514.3 22549.9 16607 11851
 3.44 17785 11637.2 31065 21007.4 18677.6 12965.9
 3.45 20099.7 12859 31462.4 20868.5 21203.5 14159.8
 3.46 22940.7 14134.8 33447.1 21862.6 24283.2 15343.3
 3.47 26204.7 15235.6 35917.2 23000.9 27855.7 16293.3
 3.48 29217.1 15632.1 37488.9 23152.7 31160.2 16568.3
 3.49 30339.4 14555.3 37503.2 22316.2 32214.2 15628.2
 3.5 28243.4 11920.4 36032.8 21569.1 29997.3 13665
 3.51 24319.3 9357.11 33375.2 20939.4 26990.6 12320.5
 3.52 21464.8 8547.46 30117.6 19786.2 25924.3 12910.7
 3.53 20827.7 9488.29 26813.8 18141.7 27167.6 15133.6
 3.54 21964.6 11446.4 23745.3 16305 29958.9 18200
 3.55 24162.3 13841 21006.1 14483.1 33560 21555.2
 3.56 26844 16296.7 18605.5 12773.6 37398.6 24826.2
 3.57 29525 18511.8 16522.7 11210.4 40941.5 27669.4
 3.58 31745.9 20191.3 14732 9798.56 43631.1 29714.5
 3.59 33091.9 21064.9 13217.2 8533.62 44941.1 30613
 3.6 33292.4 20965.1 11983.9 7416.42 44527.2 30153.8
 3.61 32328.8 19904.1 11078 6472.75 42374.7 28371.2
 3.62 30463.3 18084.3 10597.2 5785.83 38821.4 25554.5
 3.63 28158.7 15824.1 10601.3 5494.7 34424.8 22140.9
 3.64 25946.2 13447.2 10800 5560.5 29762 18567
 3.65 24286.4 11193.1 10781 5612.04 25286 15164.6
 3.66 23279.5 9151.78 10836.9 5580.13 21280.3 12133.5
 3.67 22109.7 7251.38 11538.8 5782.47 17884.8 9564.76
 3.68 19862.5 5506.4 13221.3 6518.59 15146.4 7480.13
 3.69 17541.1 4166.11 15657.9 7800.17 13067.1 5868.15
 3.7 16427.8 3361.42 17563.7 8983.13 11641 4708.65
