 Energy(eV)     Ext/Sca_Zpol     Ext/Sca_Ypol     Ext/Sca_Xpol
 2.7 476.253 329.09 556.326 413.666 415.303 282.653
 2.71 491.718 340.444 571.331 424.83 425.895 289.673
 2.72 507.792 352.245 586.851 436.367 436.848 296.92
 2.73 524.503 364.517 602.912 448.293 448.179 304.403
 2.74 541.883 377.282 619.537 460.626 459.904 312.134
 2.75 559.965 390.563 636.753 473.384 472.045 320.123
 2.76 578.786 404.386 654.59 486.588 484.619 328.384
 2.77 598.381 418.779 673.076 500.259 497.65 336.93
 2.78 618.791 433.77 692.245 514.418 511.16 345.773
 2.79 640.059 449.39 712.13 529.091 525.173 354.93
 2.8 662.23 465.671 732.768 544.302 539.716 364.415
 2.81 685.352 482.649 754.197 560.079 554.815 374.245
 2.82 709.478 500.36 776.458 576.449 570.501 384.438
 2.83 734.661 518.845 799.595 593.445 586.805 395.013
 2.84 760.963 538.145 823.657 611.098 603.76 405.991
 2.85 788.445 558.306 848.691 629.443 621.403 417.392
 2.86 817.176 579.377 874.754 648.518 639.772 429.24
 2.87 847.229 601.41 901.901 668.363 658.91 441.559
 2.88 878.682 624.461 930.196 689.02 678.859 454.377
 2.89 911.62 648.59 959.704 710.535 699.669 467.722
 2.9 946.134 673.861 990.497 732.958 721.39 481.624
 2.91 982.321 700.345 1022.65 756.342 744.078 496.117
 2.92 1020.29 728.117 1056.25 780.743 767.793 511.235
 2.93 1060.15 757.257 1091.38 806.223 792.599 527.016
 2.94 1102.03 787.854 1128.14 832.847 818.566 543.503
 2.95 1146.06 820.003 1166.64 860.688 845.77 560.739
 2.96 1192.38 853.805 1206.98 889.822 874.292 578.773
 2.97 1241.16 889.374 1249.29 920.332 904.221 597.656
 2.98 1292.58 926.831 1293.71 952.31 935.653 617.446
 2.99 1346.8 966.307 1340.36 985.853 968.694 638.203
 3 1404.05 1007.95 1389.43 1021.07 1003.46 659.995
 3.01 1464.54 1051.91 1441.06 1058.07 1040.07 682.894
 3.02 1528.53 1098.36 1495.46 1096.99 1078.67 706.98
 3.03 1596.27 1147.5 1552.82 1137.96 1119.4 732.339
 3.04 1668.07 1199.52 1613.38 1181.13 1162.43 759.067
 3.05 1744.26 1254.66 1677.37 1226.68 1207.94 787.268
 3.06 1825.18 1313.17 1745.06 1274.77 1256.13 817.056
 3.07 1911.26 1375.32 1816.77 1325.62 1307.22 848.559
 3.08 2002.91 1441.43 1892.81 1379.44 1361.45 881.914
 3.09 2100.64 1511.82 1973.55 1436.48 1419.1 917.276
 3.1 2204.98 1586.87 2059.39 1497 1480.45 954.815
 3.11 2316.56 1667.01 2150.8 1561.3 1545.85 994.722
 3.12 2436.04 1752.7 2248.26 1629.72 1615.67 1037.21
 3.13 2564.2 1844.47 2352.33 1702.62 1690.33 1082.5
 3.14 2701.88 1942.91 2463.65 1780.43 1770.29 1130.88
 3.15 2850.07 2048.67 2582.93 1863.59 1856.08 1182.62
 3.16 3009.84 2162.49 2710.94 1952.63 1948.3 1238.07
 3.17 3182.45 2285.23 2848.59 2048.13 2047.63 1297.6
 3.18 3369.3 2417.84 2996.9 2150.76 2154.82 1361.64
 3.19 3572 2561.4 3157.02 2261.27 2270.76 1430.66
 3.2 3792.39 2717.16 3330.27 2380.49 2396.44 1505.22
 3.21 4032.61 2886.53 3518.15 2509.41 2533.02 1585.95
 3.22 4295.09 3071.16 3722.4 2649.14 2681.82 1673.56
 3.23 4582.66 3272.94 3945.02 2800.94 2844.39 1768.9
 3.24 4898.62 3494.04 4188.32 2966.3 3022.51 1872.93
 3.25 5246.81 3737.01 4455.02 3146.91 3218.27 1986.77
 3.26 5631.76 4004.82 4748.24 3344.76 3434.16 2111.74
 3.27 6058.77 4300.96 5071.72 3562.17 3673.07 2249.38
 3.28 6534.15 4629.53 5429.81 3801.86 3938.48 2401.52
 3.29 7065.39 4995.37 5827.73 4067.04 4234.54 2570.33
 3.3 7661.44 5404.25 6271.67 4361.53 4566.24 2758.39
 3.31 8333.07 5863.05 6769.11 4689.88 4939.67 2968.85
 3.32 9093.29 6380.01 7329.08 5057.52 5362.23 3205.48
 3.33 9957.89 6965.04 7962.56 5471.06 5843.09 3472.91
 3.34 10946.1 7630.09 8683.03 5938.46 6393.64 3776.83
 3.35 12081.6 8389.63 9507.17 6469.49 7028.19 4124.32
 3.36 13393.2 9261.14 10455.7 7076.1 7764.94 4524.23
 3.37 14916.8 10265.8 11554.6 7773.06 8627.22 4987.74
 3.38 16696.4 11428.9 12837 8578.7 9645.41 5529.14
 3.39 18786.2 12780.7 14344.6 9515.79 10859.5 6166.83
 3.4 21252.4 14356.4 16131.8 10612.7 12323.1 6924.8
 3.41 24175.3 16195.2 18268.6 11904.8 14109 7834.56
 3.42 27649.7 18338.1 20847 13435.4 16318.2 8937.94
 3.43 31784.1 20821.1 23988.1 15257.1 19093.1 10290.8
 3.44 36696.3 23662.5 27852.6 17431.1 22638.5 11967.9
 3.45 42499.8 26839.2 32651.8 20022.5 27250.6 14068.9
 3.46 49258.5 30246.4 38641.2 23087.3 33338.9 16721.7
 3.47 56773.1 33636.3 45989.9 26634.7 41331.3 20073.3
 3.48 63820 36539.2 54182.7 30533.6 51104 24219.2
 3.49 67646.7 38318.6 61328.9 34384.1 61233.3 29029.8
 3.5 67091.8 38539.6 66090.8 37569.9 70542.5 34030.4
 3.51 63687.3 37092 68593 39357.4 78557.5 38265.1
 3.52 58491.5 34126.2 68238 39022.2 82935.8 40187.6
 3.53 52068 30095.8 64412.2 36330.5 80876.2 38538.4
 3.54 45102.6 25612.3 57650.2 31822.8 72406.4 33648.6
 3.55 38290.9 21217.6 49383.3 26501.4 60559.2 27259.1
 3.56 32115.1 17250.9 41054.1 21278.3 48632.3 21062.5
 3.57 26790.9 13850.2 33570.8 16683.1 38409.7 15891
 3.58 22342.2 11022.3 27288.2 12892.6 30318.8 11883.7
 3.59 18693.8 8710 22215.2 9877.03 24143.2 8877.74
 3.6 15736.1 6836.24 18207.9 7524.26 19495.3 6646.79
 3.61 13358.7 5325.05 15084.3 5707.51 16011.6 4991.42
 3.62 11465.3 4110.59 12675.8 4314.31 13405.6 3759.02
 3.63 9978.05 3139.5 10844.8 3254.57 11467.5 2839.44
 3.64 8838.26 2370.62 9487.45 2460.23 10049.9 2155.39
 3.65 8005.64 1773.82 8531.37 1882.29 9054.66 1653.79
 3.66 7457.75 1328.95 7932.99 1487.71 8422.32 1299.47
 3.67 7191.06 1025.19 7677.45 1257.23 8128.07 1070.98
 3.68 7224.25 861.145 7782.36 1184.65 8182.86 958.545
 3.69 7604.41 845.749 8306.28 1277.95 8640.74 963.763
 3.7 8410.38 999.52 9351.42 1562.55 9603.41 1101.26
