 Energy(eV)     Ext/Sca_Zpol     Ext/Sca_Ypol     Ext/Sca_Xpol
 2.7 434.663 294.532 425.514 284.707 361.056 220.54
 2.71 446.032 302.046 437.333 292.756 372.619 228.173
 2.72 457.839 309.848 449.59 301.099 384.661 236.13
 2.73 470.108 317.953 462.306 309.751 397.204 244.428
 2.74 482.865 326.379 475.505 318.727 410.276 253.085
 2.75 496.138 335.144 489.21 328.042 423.903 262.119
 2.76 509.954 344.268 503.448 337.714 438.114 271.55
 2.77 524.346 353.771 518.245 347.761 452.942 281.398
 2.78 539.345 363.677 533.632 358.203 468.418 291.687
 2.79 554.988 374.01 549.638 369.058 484.578 302.439
 2.8 571.313 384.793 566.298 380.351 501.46 313.682
 2.81 588.358 396.056 583.646 392.103 519.104 325.44
 2.82 606.168 407.826 601.721 404.34 537.553 337.745
 2.83 624.789 420.136 620.563 417.088 556.854 350.627
 2.84 644.27 433.018 640.216 430.376 577.055 364.118
 2.85 664.664 446.508 660.725 444.234 598.21 378.255
 2.86 686.029 460.645 682.141 458.695 620.376 393.076
 2.87 708.425 475.469 704.517 473.795 643.613 408.622
 2.88 731.918 491.026 727.911 489.569 667.988 424.936
 2.89 756.581 507.363 752.385 506.06 693.571 442.067
 2.9 782.488 524.53 778.006 523.311 720.439 460.065
 2.91 809.723 542.584 804.845 541.367 748.674 478.986
 2.92 838.375 561.584 832.98 560.281 778.365 498.888
 2.93 868.541 581.595 862.496 580.106 809.609 519.836
 2.94 900.326 602.686 893.483 600.902 842.511 541.9
 2.95 933.843 624.933 926.04 622.733 877.183 565.156
 2.96 969.215 648.418 960.275 645.667 913.749 589.684
 2.97 1006.58 673.231 996.303 669.78 952.343 615.573
 2.98 1046.08 699.468 1034.25 695.155 993.112 642.922
 2.99 1087.87 727.234 1074.26 721.879 1036.21 671.834
 3 1132.14 756.646 1116.48 750.05 1081.83 702.426
 3.01 1179.06 787.829 1161.07 779.775 1130.14 734.823
 3.02 1228.86 820.921 1208.21 811.168 1181.35 769.164
 3.03 1281.76 856.073 1258.12 844.358 1235.71 805.599
 3.04 1338.01 893.452 1310.99 879.484 1293.46 844.295
 3.05 1397.89 933.239 1367.08 916.7 1354.89 885.435
 3.06 1461.72 975.638 1426.65 956.174 1420.29 929.222
 3.07 1529.83 1020.87 1489.99 998.094 1490.02 975.879
 3.08 1602.6 1069.18 1557.43 1042.67 1564.45 1025.65
 3.09 1680.46 1120.85 1629.33 1090.12 1644.01 1078.82
 3.1 1763.87 1176.17 1706.1 1140.71 1729.16 1135.69
 3.11 1853.36 1235.5 1788.18 1194.72 1820.44 1196.6
 3.12 1949.52 1299.2 1876.08 1252.46 1918.43 1261.93
 3.13 2053 1367.7 1970.36 1314.3 2023.8 1332.11
 3.14 2164.56 1441.48 2071.67 1380.63 2137.3 1407.63
 3.15 2285.03 1521.09 2180.71 1451.89 2259.77 1489.02
 3.16 2415.37 1607.12 2298.3 1528.6 2392.16 1576.91
 3.17 2556.66 1700.28 2425.36 1611.32 2535.57 1671.99
 3.18 2710.13 1801.34 2562.94 1700.71 2691.24 1775.04
 3.19 2877.22 1911.2 2712.25 1797.52 2860.6 1886.99
 3.2 3059.53 2030.89 2874.66 1902.58 3045.27 2008.86
 3.21 3258.95 2161.6 3051.76 2016.87 3247.15 2141.86
 3.22 3477.66 2304.68 3245.39 2141.53 3468.42 2287.35
 3.23 3718.18 2461.72 3457.68 2277.84 3711.62 2446.96
 3.24 3983.47 2634.55 3691.13 2427.32 3979.74 2622.53
 3.25 4277.01 2825.35 3948.66 2591.75 4276.25 2816.25
 3.26 4602.88 3036.62 4233.7 2773.18 4605.29 3030.69
 3.27 4965.97 3271.38 4550.33 2974.08 4971.74 3268.88
 3.28 5372.06 3533.15 4903.42 3197.33 5381.44 3534.43
 3.29 5828.12 3826.19 5298.79 3446.4 5841.39 3831.63
 3.3 6342.55 4155.59 5743.47 3725.44 6360.04 4165.64
 3.31 6925.57 4527.48 6246 4039.45 6947.66 4542.73
 3.32 7589.66 4949.34 6816.8 4394.51 7616.82 4970.46
 3.33 8350.22 5430.29 7468.74 4798.08 8382.97 5458.13
 3.34 9226.31 5981.55 8217.78 5259.29 9265.3 6017.14
 3.35 10241.8 6617 9083.9 5789.51 10287.7 6661.62
 3.36 11426.5 7353.89 10092.3 6402.91 11480.4 7409.15
 3.37 12818.5 8213.78 11275.2 7117.29 12881.4 8281.66
 3.38 14466 9223.63 12673.7 7955.17 14539.2 9306.68
 3.39 16430.6 10417.2 14341.1 8945.11 16515.6 10518.6
 3.4 18791.4 11836.7 16347.2 10123.5 18890 11960.5
 3.41 21649.3 13533.7 18783.3 11536.4 21763.6 13685.1
 3.42 25132.2 15570.1 21769.7 13242 25264.2 15755.7
 3.43 29398.5 18015.8 25465 15311.5 29550.1 18243.7
 3.44 34636.9 20940.3 30075.4 17828.4 34809 21220.2
 3.45 41050.4 24391.4 35859.4 20879.6 41241.7 24734.3
 3.46 48797.8 28349.9 43098.1 24529.5 49003 28766.7
 3.47 57768.6 32645.2 51905.5 28756.5 57981.6 33145.2
 3.48 66880.2 36825.2 61543.5 33319.8 67104.3 37417.8
 3.49 73436.4 40060.4 69745.3 37601.8 73669.7 40757
 3.5 75400.3 41382.4 74602.3 40648.8 75610.5 42176.3
 3.51 73005 40215.1 75591.2 41447.8 73176.6 41065.9
 3.52 67062.7 36719.7 72274.4 39457 67197.8 37573.5
 3.53 58828 31737.3 65157.7 35106.3 58933.6 32550.8
 3.54 49844.6 26305.8 55948.5 29550.2 49928.9 27055
 3.55 41328.3 21196.8 46494.6 23932.7 41397.3 21873.8
 3.56 33911.1 16787.6 37975.3 18939.9 33967.8 17394.2
 3.57 27761.9 13163.2 30843.5 14809.8 27807.9 13706.4
 3.58 22800.2 10259.6 25106.3 11519.7 22836.7 10748.1
 3.59 18852.4 7961.38 20582.6 8944.88 18881 8403.91
 3.6 15733.7 6150.17 17049.6 6943.05 15756.4 6555.05
 3.61 13281.8 4724.12 14304.7 5388.49 13301.4 5098.85
 3.62 11366.1 3602 12184 4180.82 11386.2 3953.32
 3.63 9887.45 2721.9 10563.4 3243.94 9912.44 3055.96
 3.64 8773.64 2038.18 9353.3 2522.03 8809.82 2360.77
 3.65 7976.21 1518.67 8494.08 1975.52 8032.57 1835.46
 3.66 7467.89 1142.42 7952.61 1577.96 7558.05 1459.28
 3.67 7242.45 898.406 7722.37 1313.88 7388.04 1221.79
 3.68 7317.31 785.201 7827.71 1177.8 7554.14 1122.56
 3.69 7739.54 811.614 8332.93 1174.05 8128.03 1172.11
 3.7 8589.94 998.34 9346.46 1316.91 9227.19 1393.66
