 Energy(eV)     Ext/Sca_Zpol     Ext/Sca_Ypol     Ext/Sca_Xpol
 2.7 417.52 276.329 417.613 277.707 396.554 254.456
 2.71 429.944 284.807 429.566 285.9 409.75 263.679
 2.72 442.903 293.665 441.973 294.4 423.486 273.288
 2.73 456.424 302.922 454.854 303.225 437.789 283.302
 2.74 470.538 312.601 468.235 312.388 452.686 293.74
 2.75 485.275 322.723 482.139 321.908 468.209 304.624
 2.76 500.669 333.313 496.595 331.802 484.388 315.976
 2.77 516.755 344.394 511.63 342.09 501.258 327.82
 2.78 533.57 355.995 527.274 352.791 518.854 340.183
 2.79 551.155 368.143 543.56 363.927 537.216 353.09
 2.8 569.551 380.869 560.523 375.521 556.385 366.571
 2.81 588.804 394.204 578.199 387.598 576.404 380.657
 2.82 608.962 408.182 596.628 400.185 597.32 395.38
 2.83 630.075 422.84 615.851 413.308 619.183 410.776
 2.84 652.199 438.216 635.913 426.999 642.046 426.883
 2.85 675.392 454.352 656.864 441.288 665.968 443.739
 2.86 699.717 471.29 678.754 456.211 691.009 461.389
 2.87 725.241 489.079 701.639 471.805 717.236 479.878
 2.88 752.035 507.768 725.578 488.109 744.719 499.257
 2.89 780.177 527.412 750.637 505.165 773.536 519.577
 2.9 809.749 548.067 776.885 523.02 803.767 540.897
 2.91 840.841 569.797 804.395 541.722 835.501 563.278
 2.92 873.549 592.668 833.249 561.326 868.835 586.786
 2.93 907.976 616.751 863.534 581.888 903.871 611.493
 2.94 944.236 642.125 895.344 603.471 940.721 637.477
 2.95 982.448 668.872 928.783 626.142 979.507 664.821
 2.96 1022.74 697.084 963.96 649.974 1020.36 693.616
 2.97 1065.27 726.858 1001 675.047 1063.42 723.961
 2.98 1110.17 758.3 1040.03 701.445 1108.85 755.964
 2.99 1157.63 791.527 1081.19 729.264 1156.82 789.74
 3 1207.82 826.663 1124.64 758.606 1207.5 825.417
 3.01 1260.94 863.845 1170.56 789.581 1261.1 863.134
 3.02 1317.22 903.222 1219.13 822.313 1317.85 903.042
 3.03 1376.89 944.959 1270.55 856.935 1377.99 945.309
 3.04 1440.22 989.233 1325.06 893.594 1441.78 990.115
 3.05 1507.5 1036.24 1382.89 932.451 1509.52 1037.66
 3.06 1579.05 1086.2 1444.34 973.686 1581.53 1088.17
 3.07 1655.23 1139.35 1509.7 1017.49 1658.17 1141.89
 3.08 1736.42 1195.94 1579.31 1064.09 1739.85 1199.08
 3.09 1823.05 1256.28 1653.55 1113.73 1826.99 1260.04
 3.1 1915.62 1320.69 1732.82 1166.66 1920.09 1325.11
 3.11 2014.66 1389.52 1817.61 1223.19 2019.7 1394.66
 3.12 2120.77 1463.17 1908.43 1283.65 2126.43 1469.1
 3.13 2234.63 1542.09 2005.87 1348.42 2240.97 1548.88
 3.14 2356.99 1626.79 2110.58 1417.92 2364.09 1634.53
 3.15 2488.7 1717.81 2223.31 1492.6 2496.66 1726.63
 3.16 2630.74 1815.81 2344.9 1573.02 2639.66 1825.84
 3.17 2784.18 1921.5 2476.31 1659.77 2794.21 1932.89
 3.18 2950.29 2035.68 2618.61 1753.54 2961.57 2048.63
 3.19 3130.46 2159.28 2773.07 1855.1 3143.2 2174.02
 3.2 3326.33 2293.36 2941.09 1965.35 3340.75 2310.15
 3.21 3539.76 2439.13 3124.32 2085.31 3556.13 2458.29
 3.22 3772.91 2597.97 3324.66 2216.16 3791.54 2619.87
 3.23 4028.27 2771.49 3544.32 2359.27 4049.52 2796.56
 3.24 4308.73 2961.54 3785.86 2516.23 4333.06 2990.3
 3.25 4617.7 3170.29 4052.3 2688.89 4645.61 3203.34
 3.26 4959.16 3400.27 4347.19 2879.43 4991.25 3438.31
 3.27 5337.8 3654.43 4674.73 3090.4 5374.79 3698.32
 3.28 5759.2 3936.29 5039.91 3324.84 5801.92 3987.02
 3.29 6230.02 4249.99 5448.74 3586.37 6279.45 4308.75
 3.3 6758.21 4600.47 5908.42 3879.32 6815.53 4668.67
 3.31 7353.4 4993.67 6427.71 4208.92 7419.98 5072.99
 3.32 8027.26 5436.71 7017.3 4581.52 8104.71 5529.18
 3.33 8794.04 5938.22 7690.33 5004.83 8884.28 6046.27
 3.34 9671.22 6508.7 8463.1 5488.38 9776.52 6635.27
 3.35 10680.5 7160.97 9355.94 6043.92 10803.5 7309.61
 3.36 11848.7 7910.76 10394.4 6686.08 11992.5 8085.8
 3.37 13209.5 8777.42 11611.1 7433.2 13377.7 8984.09
 3.38 14805.2 9784.74 13047.4 8308.32 15001.8 10029.4
 3.39 16689.1 10961.9 14756.8 9340.56 16918.5 11252.4
 3.4 18928.7 12344.6 16808.6 10566.7 19195.2 12690.2
 3.41 21609 13975.4 19293.2 12033.1 21916 14387.1
 3.42 24836.9 15903.8 22328.2 13797.1 25185.3 16394.5
 3.43 28744.9 18183.6 26066.6 15928.3 29129.2 18767.1
 3.44 33493.2 20865.9 30704.5 18505.7 33895 21555.6
 3.45 39265.1 23982.4 36481.4 21607.6 39640.2 24787.7
 3.46 46227.1 27511.6 43647.3 25283.7 46489.2 28432.1
 3.47 54326 31312.7 52271.7 29490.1 54347.6 32333.5
 3.48 62559.1 35013.5 61580.4 33958.4 62270.4 36113.3
 3.49 68359.3 37951.1 69323 38051.2 67911.6 39111.3
 3.5 70179.8 39435.1 73658.1 40843.9 69736 40592.6
 3.51 68738.1 39006.8 74224.9 41425.9 68218.8 40057.7
 3.52 64554.7 36561.3 70786.3 39357.6 63869.3 37455.2
 3.53 58128.5 32515.2 63874.3 35074.3 57338.5 33285
 3.54 50453 27651.7 55038.7 29648.9 49695.5 28360.1
 3.55 42633.3 22740.6 45953.6 24144.3 42004.7 23425.8
 3.56 35452.1 18282.8 37712 19214 34976.4 18950.6
 3.57 29272.8 14489.3 30757.4 15099.6 28928.9 15129.6
 3.58 24157.9 11378.9 25119.1 11794.4 23910.8 11980.5
 3.59 20017.1 8879.16 20642.6 9188.44 19834.7 9435.58
 3.6 16706.9 6889.88 17125.6 7149.2 16565.4 7399.8
 3.61 14082.7 5314 14379.3 5556.75 13966.4 5779.98
 3.62 12019.3 4069.02 12248.3 4313.73 11919.4 4496.16
 3.63 10416.6 3089.39 10613.6 3345.4 10329.9 3484.37
 3.64 9199.79 2325.24 9388.7 2596.46 9127.74 2695.83
 3.65 8316.45 1740.28 8515.7 2027.48 8265.48 2095.1
 3.66 7735.44 1309.79 7962.63 1612.01 7718.04 1658.41
 3.67 7446.65 1019.36 7723.76 1334.67 7484.24 1372.38
 3.68 7463.61 864.348 7824.13 1190.15 7592.31 1233.6
 3.69 7829.09 850.317 8328.92 1183.22 8109.72 1248.8
 3.7 8618.42 994.018 9348.13 1329.11 9147.98 1435.4
