 Energy(eV)     Ext/Sca_Zpol     Ext/Sca_Ypol     Ext/Sca_Xpol
 2.7 422.281 280.294 683.378 536.403 554.034 422.616
 2.71 434.178 288.222 702.804 551.773 568.837 433.912
 2.72 446.525 296.444 722.918 567.678 584.139 445.577
 2.73 459.345 304.976 743.752 584.141 599.962 457.628
 2.74 472.662 313.834 765.34 601.189 616.328 470.08
 2.75 486.502 323.033 787.719 618.849 633.265 482.953
 2.76 500.892 332.591 810.925 637.151 650.797 496.265
 2.77 515.86 342.527 835.001 656.124 668.953 510.037
 2.78 531.439 352.861 859.989 675.802 687.764 524.29
 2.79 547.66 363.615 885.935 696.22 707.261 539.047
 2.8 564.56 374.81 912.887 717.415 727.478 554.333
 2.81 582.176 386.472 940.899 739.426 748.45 570.173
 2.82 600.549 398.626 970.024 762.294 770.217 586.595
 2.83 619.722 411.3 1000.32 786.066 792.819 603.628
 2.84 639.742 424.524 1031.86 810.788 816.3 621.303
 2.85 660.658 438.33 1064.7 836.512 840.706 639.654
 2.86 682.524 452.752 1098.92 863.293 866.087 658.715
 2.87 705.399 467.827 1134.59 891.188 892.495 678.524
 2.88 729.345 483.594 1171.8 920.26 919.989 699.123
 2.89 754.427 500.098 1210.63 950.577 948.628 720.553
 2.9 780.721 517.382 1251.19 982.211 978.479 742.863
 2.91 808.302 535.499 1293.57 1015.24 1009.61 766.101
 2.92 837.258 554.5 1337.89 1049.74 1042.1 790.32
 2.93 867.678 574.444 1384.27 1085.81 1076.03 815.579
 2.94 899.665 595.395 1432.83 1123.55 1111.48 841.938
 2.95 933.325 617.421 1483.72 1163.05 1148.55 869.465
 2.96 968.777 640.597 1537.09 1204.43 1187.35 898.232
 2.97 1006.15 665.003 1593.09 1247.82 1227.97 928.315
 2.98 1045.58 690.727 1651.91 1293.34 1270.55 959.798
 2.99 1087.23 717.867 1713.75 1341.14 1315.21 992.772
 3 1131.27 746.527 1778.81 1391.37 1362.09 1027.34
 3.01 1177.87 776.823 1847.31 1444.21 1411.35 1063.6
 3.02 1227.24 808.883 1919.52 1499.83 1463.15 1101.67
 3.03 1279.62 842.844 1995.71 1558.45 1517.67 1141.68
 3.04 1335.23 878.861 2076.16 1620.28 1575.11 1183.77
 3.05 1394.36 917.104 2161.22 1685.56 1635.7 1228.08
 3.06 1457.31 957.759 2251.24 1754.56 1699.65 1274.78
 3.07 1524.41 1001.03 2346.62 1827.57 1767.25 1324.06
 3.08 1596.04 1047.16 2447.79 1904.91 1838.78 1376.11
 3.09 1672.62 1096.39 2555.25 1986.94 1914.55 1431.14
 3.1 1754.62 1149.02 2669.52 2074.04 1994.91 1489.41
 3.11 1842.55 1205.37 2791.2 2166.65 2080.25 1551.17
 3.12 1937.01 1265.78 2920.96 2265.25 2171.01 1616.71
 3.13 2038.67 1330.68 3059.52 2370.38 2267.67 1686.37
 3.14 2148.27 1400.52 3207.72 2482.62 2370.74 1760.51
 3.15 2266.68 1475.81 3366.48 2602.66 2480.85 1839.52
 3.16 2394.86 1557.14 3536.83 2731.23 2598.64 1923.87
 3.17 2533.92 1645.19 3719.94 2869.17 2724.88 2014.06
 3.18 2685.15 1740.72 3917.13 3017.43 2860.41 2110.65
 3.19 2850.02 1844.6 4129.89 3177.08 3006.19 2214.28
 3.2 3030.21 1957.85 4359.92 3349.32 3163.3 2325.68
 3.21 3227.72 2081.65 4609.15 3535.52 3332.98 2445.66
 3.22 3444.83 2217.36 4879.79 3737.27 3516.64 2575.16
 3.23 3684.26 2366.57 5174.39 3956.33 3715.89 2715.24
 3.24 3949.19 2531.15 5495.86 4194.77 3932.58 2867.11
 3.25 4243.38 2713.31 5847.57 4454.95 4168.87 3032.16
 3.26 4571.34 2915.67 6233.46 4739.6 4427.23 3212.01
 3.27 4938.46 3141.35 6658.07 5051.88 4710.57 3408.52
 3.28 5351.25 3394.12 7126.74 5395.48 5022.26 3623.85
 3.29 5817.62 3678.5 7645.74 5774.68 5366.3 3860.53
 3.3 6347.25 4000.03 8222.46 6194.54 5747.39 4121.54
 3.31 6952.09 4365.48 8865.65 6660.96 6171.14 4410.36
 3.32 7646.98 4783.23 9585.72 7180.93 6644.24 4731.14
 3.33 8450.55 5263.68 10395.1 7762.72 7174.75 5088.79
 3.34 9386.34 5819.93 11308.6 8416.12 7772.45 5489.2
 3.35 10484.4 6468.51 12344.3 9152.77 8449.25 5939.44
 3.36 11783.4 7230.5 13523.7 9986.49 9219.8 6448.03
 3.37 13333.5 8132.94 14873 10933.7 10102.3 7025.28
 3.38 15200.1 9210.65 16423.7 12013.6 11119.4 7683.74
 3.39 17469.2 10508.6 18214.1 13249 12299.9 8438.67
 3.4 20253.4 12084.3 20290.1 14665.7 13680.4 9308.6
 3.41 23698.9 14010.4 22706.9 16292.6 15308.6 10316
 3.42 27990.4 16374.3 25529.4 18160.4 17246.9 11487.5
 3.43 33347.2 19270.9 28833.8 20298.1 19579.2 12854.4
 3.44 39992.8 22776.8 32706.9 22726.9 22420 14450.8
 3.45 48062.1 26884.1 37244.7 25448.9 25926.5 16309.9
 3.46 57391 31368.5 42535.4 28425.9 30297.6 18454.5
 3.47 67140.7 35613.6 48549.6 31540.2 35676 20886.3
 3.48 75341 38627.5 54667.9 34518.4 41737.6 23613.7
 3.49 79087.7 39594.3 59095.8 36887.8 47388.2 26736.2
 3.5 76809.4 38257 60627.2 38220.7 52112 30197.9
 3.51 69981.8 34913.2 60020.7 38280.2 56296.6 33459.1
 3.52 61282 30541.1 57748.2 36902.8 59570 35786.5
 3.53 52583.2 26051.8 53838.2 34146.2 60860.4 36489.9
 3.54 44637.1 21857.9 48599.1 30366.5 59309.4 35169.6
 3.55 37587.6 18062.9 42634.9 26080.9 54911.3 31981.8
 3.56 31430.6 14697.6 36581.7 21775 48536.5 27596.5
 3.57 26163.7 11791.5 30913.2 17785.7 41401.8 22838.6
 3.58 21766.2 9353.29 25891.2 14285.7 34507.4 18342.6
 3.59 18173.8 7356.54 21606.4 11323.8 28416.6 14439.1
 3.6 15288.1 5748.53 18044.8 8876.48 23322.9 11219.4
 3.61 13000.2 4467.18 15141.7 6887.85 19203.3 8642.67
 3.62 11209.6 3453.54 12817.3 5293.75 15942.9 6616.69
 3.63 9832.68 2657.79 10995.8 4034.65 13406 5042.16
 3.64 8806.35 2041.06 9615.21 3061.16 11470.2 3831.48
 3.65 8087.55 1575.12 8631.37 2335.99 10038.3 2914.54
 3.66 7653.22 1241.66 8021.32 1834.56 9042.13 2238.69
 3.67 7501.18 1031.69 7786.8 1545.42 8444 1766.9
 3.68 7653.64 945.838 7961.03 1471.83 8239.95 1475.64
 3.69 8164.06 995.55 8618.98 1635.43 8466.86 1353.04
 3.7 9123.48 1205.44 9877.79 2083.07 9205.78 1396.98
