 Energy(eV)     Ext/Sca_Zpol     Ext/Sca_Ypol     Ext/Sca_Xpol
 2.7 422.944 277.339 613.405 469.647 481.034 349.196
 2.71 436.121 286.417 630.314 482.65 493.492 358.128
 2.72 449.829 295.864 647.809 496.093 506.366 367.346
 2.73 464.096 305.701 665.916 509.995 519.676 376.862
 2.74 478.949 315.946 684.665 524.378 533.442 386.691
 2.75 494.421 326.62 704.086 539.263 547.686 396.845
 2.76 510.542 337.747 724.212 554.674 562.429 407.34
 2.77 527.348 349.35 745.075 570.636 577.695 418.192
 2.78 544.875 361.454 766.713 587.176 593.511 429.417
 2.79 563.164 374.087 789.163 604.322 609.904 441.034
 2.8 582.255 387.277 812.468 622.103 626.902 453.062
 2.81 602.195 401.056 836.671 640.551 644.535 465.521
 2.82 623.031 415.456 861.818 659.701 662.838 478.432
 2.83 644.815 430.514 887.96 679.588 681.844 491.819
 2.84 667.602 446.266 915.148 700.252 701.592 505.706
 2.85 691.452 462.754 943.441 721.732 722.12 520.119
 2.86 716.428 480.022 972.898 744.074 743.472 535.085
 2.87 742.6 498.115 1003.59 767.324 765.693 550.636
 2.88 770.04 517.086 1035.57 791.533 788.833 566.802
 2.89 798.829 536.988 1068.93 816.754 812.943 583.619
 2.9 829.053 557.879 1103.75 843.045 838.081 601.122
 2.91 860.805 579.824 1140.11 870.47 864.306 619.351
 2.92 894.185 602.89 1178.1 899.094 891.685 638.349
 2.93 929.302 627.151 1217.83 928.99 920.287 658.161
 2.94 966.275 652.688 1259.4 960.235 950.189 678.836
 2.95 1005.23 679.588 1302.93 992.913 981.473 700.428
 2.96 1046.31 707.945 1348.55 1027.12 1014.23 722.992
 2.97 1089.67 737.863 1396.39 1062.94 1048.55 746.592
 2.98 1135.47 769.452 1446.6 1100.49 1084.54 771.294
 2.99 1183.89 802.836 1499.35 1139.88 1122.31 797.171
 3 1235.13 838.148 1554.81 1181.25 1162 824.301
 3.01 1289.42 875.535 1613.18 1224.71 1203.72 852.77
 3.02 1346.98 915.157 1674.65 1270.43 1247.64 882.672
 3.03 1408.09 957.191 1739.47 1318.56 1293.9 914.108
 3.04 1473.03 1001.83 1807.87 1369.28 1342.69 947.19
 3.05 1542.12 1049.29 1880.15 1422.78 1394.19 982.04
 3.06 1615.73 1099.81 1956.59 1479.29 1448.62 1018.79
 3.07 1694.23 1153.65 2037.54 1539.02 1506.22 1057.59
 3.08 1778.08 1211.1 2123.35 1602.23 1567.23 1098.59
 3.09 1867.76 1272.48 2214.44 1669.22 1631.94 1141.99
 3.1 1963.82 1338.16 2311.25 1740.29 1700.67 1187.96
 3.11 2066.86 1408.54 2414.28 1815.79 1773.77 1236.74
 3.12 2177.57 1484.07 2524.09 1896.1 1851.62 1288.56
 3.13 2296.73 1565.25 2641.3 1981.66 1934.65 1343.69
 3.14 2425.2 1652.68 2766.6 2072.94 2023.37 1402.43
 3.15 2563.97 1746.97 2900.77 2170.47 2118.3 1465.12
 3.16 2714.18 1848.89 3044.67 2274.86 2220.06 1532.13
 3.17 2877.08 1959.24 3199.31 2386.78 2329.34 1603.88
 3.18 3054.15 2079 3365.78 2506.98 2446.93 1680.85
 3.19 3247.07 2209.24 3545.35 2636.33 2573.71 1763.59
 3.2 3457.77 2351.21 3739.47 2775.81 2710.69 1852.69
 3.21 3688.48 2506.37 3949.76 2926.51 2859.03 1948.85
 3.22 3941.81 2676.37 4178.12 3089.72 3020.05 2052.88
 3.23 4220.79 2863.16 4426.71 3266.86 3195.29 2165.68
 3.24 4528.96 3069.01 4698.03 3459.63 3386.52 2288.31
 3.25 4870.52 3296.58 4994.98 3669.93 3595.78 2421.97
 3.26 5250.41 3549.01 5320.94 3900.01 3825.49 2568.07
 3.27 5674.52 3830.01 5679.86 4152.46 4078.47 2728.27
 3.28 6149.89 4144 6076.39 4430.32 4358.03 2904.49
 3.29 6685 4496.28 6516.01 4737.16 4668.15 3099
 3.3 7290.1 4893.22 7005.25 5077.18 5013.52 3314.49
 3.31 7977.65 5342.53 7551.89 5455.37 5399.83 3554.18
 3.32 8762.94 5853.59 8165.29 5877.67 5833.94 3821.9
 3.33 9664.78 6437.87 8856.71 6351.18 6324.21 4122.29
 3.34 10706.5 7109.47 9639.89 6884.44 6880.93 4460.99
 3.35 11917.1 7885.78 10531.6 7487.75 7516.85 4844.88
 3.36 13333.1 8788.32 11552.4 8173.59 8247.92 5282.42
 3.37 15000 9843.76 12727.9 8957.15 9094.3 5784.12
 3.38 16975.3 11085 14089.8 9856.9 10081.8 6363.09
 3.39 19331.2 12552.4 15677.8 10895.3 11243.7 7035.8
 3.4 22157 14294.5 17542.1 12099.6 12623.7 7823.09
 3.41 25562 16367.4 19745.8 13502.5 14280.1 8751.44
 3.42 29674.7 18831.9 22369.2 15142.4 16292 9854.57
 3.43 34635.5 21743.2 25514.8 17063 18768.6 11175.4
 3.44 40576.1 25129.7 29313.5 19310.6 21864.7 12768.2
 3.45 47573.6 28950.2 33931.1 21927.1 25801.2 14700.3
 3.46 55555.4 33025.5 39559.1 24933.8 30880.6 17052.6
 3.47 64062.4 36951 46293.5 28294.5 37402.9 19916
 3.48 71594.2 40035.3 53579.9 31829.4 45184.7 23371.5
 3.49 75188.3 41410.8 59543 35116.3 52958.2 27396.2
 3.5 73331.2 40513.6 62918.3 37616.7 59836.5 31690.4
 3.51 67622.2 37492.2 64185.8 38811.3 66030.7 35618.4
 3.52 59906.9 33043.4 63255.3 38223.6 70600.3 38201.1
 3.53 51504.5 28021 59763.5 35719.6 71600.3 38382.2
 3.54 43364.5 23105.6 54032.9 31695 67901.2 35743.9
 3.55 36051.4 18690.4 47015.4 26889.3 60302.8 30956.2
 3.56 29801.3 14930.5 39763.1 22030.1 50895.5 25315.9
 3.57 24630 11831.6 33031.9 17602.6 41621.9 19926.6
 3.58 20434.4 9324.74 27196.4 13824 33549.3 15342.9
 3.59 17068 7315.18 22348.2 10726.2 26983.9 11683.4
 3.6 14384.1 5709.93 18425.9 8247.31 21831.1 8853.89
 3.61 12255.9 4428.96 15308.7 6293.13 17859.4 6697.43
 3.62 10581.5 3408.13 12867.8 4769.56 14829.3 5063.2
 3.63 9283.44 2598.23 10989.9 3595.74 12539.3 3828.24
 3.64 8306.42 1963 9585.47 2707.73 10835.7 2899.42
 3.65 7614.59 1477.25 8590.46 2058.13 9609.1 2209.21
 3.66 7190.6 1125.43 7966.47 1614.7 8788.45 1710.43
 3.67 7036.37 901.026 7702.29 1359.1 8338.09 1372.02
 3.68 7176.65 806.835 7818.7 1286.95 8258.71 1176.16
 3.69 7665.9 856.311 8377.6 1409.87 8593.92 1116.76
 3.7 8593.65 1076.05 9484.34 1760.15 9433.41 1198.98
