 Energy(eV)     Ext/Sca_Zpol     Ext/Sca_Ypol     Ext/Sca_Xpol
 2.7 526.243 383.108 470.674 328.691 341.31 205.137
 2.71 541.005 394.008 483.239 337.462 350.709 210.785
 2.72 556.252 405.247 496.245 346.533 360.467 216.647
 2.73 572.007 416.841 509.713 355.916 370.602 222.735
 2.74 588.292 428.805 523.667 365.627 381.135 229.059
 2.75 605.133 441.155 538.129 375.681 392.084 235.631
 2.76 622.556 453.909 553.125 386.095 403.472 242.466
 2.77 640.587 467.085 568.681 396.887 415.323 249.576
 2.78 659.257 480.702 584.826 408.075 427.66 256.976
 2.79 678.598 494.783 601.59 419.679 440.511 264.682
 2.8 698.643 509.349 619.006 431.721 453.904 272.711
 2.81 719.428 524.424 637.107 444.222 467.869 281.081
 2.82 740.992 540.033 655.931 457.209 482.438 289.81
 2.83 763.375 556.204 675.516 470.705 497.646 298.919
 2.84 786.623 572.966 695.906 484.738 513.53 308.431
 2.85 810.781 590.35 717.145 499.339 530.129 318.367
 2.86 835.9 608.389 739.28 514.539 547.488 328.755
 2.87 862.036 627.119 762.365 530.37 565.651 339.621
 2.88 889.245 646.579 786.454 546.87 584.668 350.993
 2.89 917.592 666.81 811.607 564.078 604.592 362.903
 2.9 947.144 687.856 837.89 582.035 625.481 375.385
 2.91 977.973 709.765 865.37 600.786 647.397 388.476
 2.92 1010.16 732.589 894.123 620.379 670.408 402.214
 2.93 1043.79 756.383 924.23 640.868 694.585 416.641
 2.94 1078.95 781.207 955.778 662.309 720.008 431.805
 2.95 1115.74 807.128 988.862 684.762 746.763 447.755
 2.96 1154.28 834.214 1023.59 708.294 774.942 464.544
 2.97 1194.68 862.544 1060.06 732.977 804.646 482.232
 2.98 1237.07 892.2 1098.4 758.888 835.987 500.883
 2.99 1281.58 923.272 1138.75 786.112 869.085 520.567
 3 1328.37 955.86 1181.25 814.742 904.073 541.359
 3.01 1377.62 990.071 1226.05 844.878 941.093 563.344
 3.02 1429.49 1026.02 1273.33 876.63 980.306 586.612
 3.03 1484.19 1063.84 1323.28 910.118 1021.89 611.264
 3.04 1541.95 1103.67 1376.1 945.474 1066.03 637.411
 3.05 1602.99 1145.67 1432.02 982.843 1112.94 665.174
 3.06 1667.6 1190 1491.3 1022.38 1162.85 694.686
 3.07 1736.06 1236.86 1554.21 1064.27 1216.04 726.097
 3.08 1808.71 1286.45 1621.07 1108.71 1272.77 759.571
 3.09 1885.9 1339.01 1692.21 1155.89 1333.39 795.29
 3.1 1968.04 1394.78 1768.01 1206.08 1398.24 833.459
 3.11 2055.58 1454.06 1848.91 1259.52 1467.74 874.304
 3.12 2149.03 1517.16 1935.36 1316.53 1542.32 918.08
 3.13 2248.95 1584.43 2027.91 1377.41 1622.5 965.073
 3.14 2355.97 1656.28 2127.15 1442.56 1708.85 1015.6
 3.15 2470.81 1733.14 2233.75 1512.38 1802.02 1070.03
 3.16 2594.28 1815.53 2348.48 1587.34 1902.75 1128.77
 3.17 2727.3 1904 2472.19 1667.97 2011.87 1192.29
 3.18 2870.9 1999.21 2605.86 1754.88 2130.34 1261.12
 3.19 3026.29 2101.89 2750.62 1848.74 2259.26 1335.86
 3.2 3194.83 2212.86 2907.75 1950.34 2399.9 1417.22
 3.21 3378.09 2333.1 3078.71 2060.57 2553.73 1506
 3.22 3577.87 2463.69 3265.22 2180.47 2722.46 1603.13
 3.23 3796.3 2605.92 3469.25 2311.21 2908.06 1709.7
 3.24 4035.82 2761.26 3693.1 2454.18 3112.88 1826.97
 3.25 4299.31 2931.42 3939.45 2610.99 3339.66 1956.43
 3.26 4590.14 3118.42 4211.49 2783.52 3591.68 2099.84
 3.27 4912.32 3324.61 4512.95 2973.98 3872.83 2259.28
 3.28 5270.6 3552.79 4848.29 3184.99 4187.78 2437.25
 3.29 5670.68 3806.28 5222.84 3419.66 4542.17 2636.73
 3.3 6119.43 4089.05 5643.03 3681.74 4942.9 2861.37
 3.31 6625.17 4405.88 6116.64 3975.7 5398.39 3115.56
 3.32 7198.09 4762.55 6653.16 4306.99 5919.06 3404.75
 3.33 7850.71 5166.1 7264.3 4682.25 6517.94 3735.65
 3.34 8598.61 5625.19 7964.55 5109.62 7211.38 4116.66
 3.35 9461.27 6150.52 8772.04 5599.22 8020.2 4558.37
 3.36 10463.4 6755.43 9709.64 6163.61 8971.15 5074.22
 3.37 11636.3 7456.63 10806.5 6818.58 10098.9 5681.51
 3.38 13020.7 8275.27 12100 7584.1 11449.2 6402.65
 3.39 14669.5 9238.25 13638.8 8485.52 13082.6 7266.98
 3.4 16652.2 10379.9 15486.5 9555.24 15080.8 8313.2
 3.41 19061.6 11744.3 17727.4 10834.6 17554.5 9592.66
 3.42 22021.8 13387.4 20473.8 12376.3 20656.2 11173.6
 3.43 25699.9 15379.4 23876.5 14246.4 24595.4 13145.8
 3.44 30318.3 17804.4 28137.8 16525.1 29659.3 15624.4
 3.45 36159.4 20750.8 33523.5 19302.8 36228.2 18746.6
 3.46 43517.9 24276.1 40351.3 22663.7 44750.8 22646.7
 3.47 52439.8 28306.7 48829.8 26637.1 55531.6 27377.3
 3.48 61948.3 32470.5 58395.5 31080.6 67962.9 32737.7
 3.49 69713.1 36160.9 66983 35512.4 79562.1 38048.3
 3.5 74371.8 38796 72866.9 39091.5 87308.8 41970.4
 3.51 75427.2 39444.2 75478.5 40750.9 88916.3 42752
 3.52 71965.7 37386.3 73823.1 39634.9 83208.9 39591.7
 3.53 64564.4 33089.4 67731.9 35816.8 72023.8 33612.9
 3.54 55249.8 27777.4 58708.8 30358.2 59030 26829.2
 3.55 45916.5 22513.1 48876.2 24561.7 47026.9 20680.2
 3.56 37606.8 17859.5 39780.7 19307.9 37144.2 15697
 3.57 30662.4 13991.7 32102.6 14946.7 29442.1 11865
 3.58 25053.1 10882.2 25932.3 11490.9 23574.7 8978.04
 3.59 20603.2 8424.76 21095.3 8812.85 19134.4 6812.01
 3.6 17106.4 6498.08 17347.7 6755.84 15773.3 5181.27
 3.61 14375.5 4992.42 14461.6 5179.62 13225.8 3946.51
 3.62 12256.7 3817.95 12251.7 3972.45 11298.7 3007.41
 3.63 10631.7 2904.98 10577.6 3050.21 9856.02 2293.29
 3.64 9413.52 2201.45 9338.29 2351.7 8805.23 1755.19
 3.65 8542.51 1670.09 8465.69 1833.86 8087.57 1360.32
 3.66 7983.12 1285.9 7920.74 1468.01 7672.93 1088.33
 3.67 7723.12 1034.68 7692.36 1237.41 7558.94 929.431
 3.68 7775.7 912.481 7801.18 1136.11 7775.27 883.987
 3.69 8185.1 926.293 8308.01 1169.18 8393.66 964.102
 3.7 9030.6 1095.52 9316.89 1353.7 9534.89 1197.63
