 Energy(eV)     Ext/Sca_Zpol     Ext/Sca_Ypol     Ext/Sca_Xpol
 2.7 524.785 378.814 508.678 366.409 366.829 232.687
 2.71 541.046 391.073 522.242 376.163 376.356 238.562
 2.72 557.894 403.768 536.274 386.242 386.223 244.639
 2.73 575.355 416.916 550.796 396.662 396.447 250.926
 2.74 593.458 430.538 565.832 407.439 407.046 257.435
 2.75 612.233 444.655 581.406 418.589 418.039 264.175
 2.76 631.712 459.291 597.544 430.13 429.445 271.159
 2.77 651.928 474.469 614.275 442.081 441.285 278.399
 2.78 672.918 490.215 631.628 454.461 453.583 285.908
 2.79 694.719 506.556 649.633 467.293 466.362 293.7
 2.8 717.373 523.521 668.326 480.597 479.648 301.789
 2.81 740.923 541.141 687.741 494.4 493.469 310.192
 2.82 765.415 559.448 707.916 508.725 507.853 318.925
 2.83 790.898 578.479 728.892 523.601 522.833 328.007
 2.84 817.426 598.269 750.714 539.057 538.442 337.456
 2.85 845.056 618.86 773.426 555.124 554.715 347.294
 2.86 873.847 640.293 797.08 571.834 571.692 357.542
 2.87 903.865 662.615 821.728 589.225 589.415 368.225
 2.88 935.179 685.874 847.428 607.333 607.927 379.367
 2.89 967.865 710.124 874.242 626.201 627.276 390.996
 2.9 1002 735.42 902.236 645.872 647.516 403.142
 2.91 1037.68 761.824 931.481 666.393 668.701 415.836
 2.92 1074.99 789.4 962.055 687.816 690.892 429.113
 2.93 1114.03 818.221 994.04 710.196 714.153 443.009
 2.94 1154.92 848.361 1027.53 733.592 738.557 457.565
 2.95 1197.76 879.903 1062.61 758.069 764.179 472.824
 2.96 1242.7 912.935 1099.4 783.694 791.103 488.832
 2.97 1289.86 947.556 1138.01 810.545 819.419 505.641
 2.98 1339.41 983.868 1178.55 838.701 849.225 523.306
 2.99 1391.49 1021.99 1221.18 868.253 880.63 541.886
 3 1446.3 1062.04 1266.03 899.295 913.75 561.449
 3.01 1504.03 1104.15 1313.27 931.934 948.713 582.065
 3.02 1564.89 1148.47 1363.06 966.283 985.662 603.812
 3.03 1629.12 1195.17 1415.61 1002.47 1024.75 626.778
 3.04 1696.98 1244.42 1471.13 1040.63 1066.15 651.055
 3.05 1768.74 1296.41 1529.84 1080.91 1110.04 676.748
 3.06 1844.72 1351.35 1592 1123.48 1156.64 703.971
 3.07 1925.26 1409.49 1657.9 1168.52 1206.17 732.849
 3.08 2010.75 1471.07 1727.85 1216.23 1258.89 763.524
 3.09 2101.6 1536.39 1802.19 1266.83 1315.07 796.148
 3.1 2198.29 1605.76 1881.3 1320.58 1375.04 830.894
 3.11 2301.33 1679.53 1965.62 1377.74 1439.15 867.954
 3.12 2411.3 1758.09 2055.62 1438.61 1507.78 907.542
 3.13 2528.86 1841.89 2151.84 1503.54 1581.38 949.895
 3.14 2654.74 1931.4 2254.87 1572.9 1660.46 995.284
 3.15 2789.75 2027.18 2365.39 1647.13 1745.56 1044.01
 3.16 2934.82 2129.85 2484.16 1726.7 1837.33 1096.42
 3.17 3091 2240.09 2612.04 1812.14 1936.5 1152.89
 3.18 3259.48 2358.69 2750.01 1904.08 2043.88 1213.87
 3.19 3441.6 2486.55 2899.18 2003.21 2160.43 1279.86
 3.2 3638.91 2624.68 3060.82 2110.32 2287.22 1351.44
 3.21 3853.19 2774.23 3236.4 2226.31 2425.53 1429.25
 3.22 4086.46 2936.53 3427.6 2352.22 2576.79 1514.08
 3.23 4341.08 3113.1 3636.37 2489.25 2742.71 1606.79
 3.24 4619.77 3305.71 3864.98 2638.78 2925.26 1708.43
 3.25 4925.71 3516.4 4116.07 2802.43 3126.78 1820.19
 3.26 5262.62 3747.53 4392.74 2982.06 3350.03 1943.49
 3.27 5634.87 4001.89 4698.65 3179.9 3598.27 2080.01
 3.28 6047.61 4282.71 5038.15 3398.53 3875.44 2231.75
 3.29 6506.96 4593.84 5416.41 3641.03 4186.25 2401.08
 3.3 7020.25 4939.82 5839.65 3911.09 4536.45 2590.91
 3.31 7596.23 5326.04 6315.37 4213.1 4933.06 2804.71
 3.32 8245.51 5758.97 6852.7 4552.38 5384.7 3046.77
 3.33 8980.93 6246.35 7462.84 4935.39 5902.14 3322.36
 3.34 9818.24 6797.53 8159.59 5370.03 6498.88 3638.05
 3.35 10776.7 7423.82 8960.15 5866 7192.03 4002.07
 3.36 11880.4 8138.96 9886.11 6435.34 8003.55 4424.88
 3.37 13158.9 8959.68 10964.8 7093.07 8961.91 4919.85
 3.38 14649.6 9906.33 12231.2 7858.04 10104.6 5504.3
 3.39 16399.6 11003.6 13730.4 8754.01 11481.3 6200.92
 3.4 18468.5 12281.5 15521.3 9811.1 13159.6 7039.69
 3.41 20932.3 13775.4 17681.1 11067.4 15231.9 8060.74
 3.42 23888.6 15526.4 20312.6 12571.1 17827.1 9318.15
 3.43 27462.7 17580 23553.3 14381.9 21127.2 10885.1
 3.44 31816.1 19981 27588 16572 25392.2 12860.3
 3.45 37150.6 22761.1 32661.7 19222.4 30990.3 15373.4
 3.46 43675.1 25909.2 39072.4 22409.4 38409.4 18581.9
 3.47 51374.2 29297.6 47028.6 26163.7 48117.1 22634.4
 3.48 59204 32565.2 56017.1 30366.5 59886.4 27543.1
 3.49 64704.7 35209.9 64090.9 34597.6 71939.2 32974.9
 3.5 67011.8 36941.8 69745.3 38136.9 82307.1 38082
 3.51 67037.6 37332.7 72711.8 40054.5 89007.3 41264.2
 3.52 64464.7 35813.6 72039 39480.5 88795.7 40724.2
 3.53 59014.9 32411.7 67174.4 36258.2 80663.4 36233.6
 3.54 51642.6 27876.4 59123.9 31194.2 67737.1 29576.8
 3.55 43787.4 23109.9 49794.4 25514.7 54206.6 22854.3
 3.56 36475.6 18709.3 40814.1 20179.9 42512.8 17189.6
 3.57 30159.3 14925.9 33037.3 15650.3 33290.7 12811.1
 3.58 24920.3 11797 26688.9 12013.4 26301.7 9547.52
 3.59 20669.8 9262.65 21667 9176.07 21076.7 7140.68
 3.6 17263.8 7231.59 17758 6992.06 17177.5 5362.99
 3.61 14557 5612.68 14741.9 5320.28 14262.1 4042.01
 3.62 12423.2 4326.72 12432.3 4044.47 12082.4 3054.56
 3.63 10761.2 3309.62 10684.6 3075.48 10464.5 2314.83
 3.64 9494.41 2511.87 9392.74 2347.78 9289.9 1763.96
 3.65 8569.28 1896.92 8484.62 1814.99 8482.33 1362.45
 3.66 7953.27 1439.51 7917.67 1446.14 7999.19 1085.16
 3.67 7635.13 1124.65 7678.08 1223.16 7828.87 918.455
 3.68 7627.42 947.249 7784.28 1139.82 7993.48 859.136
 3.69 7972.03 912.694 8295.31 1202.32 8557.86 915.483
 3.7 8743.02 1037.65 9313.55 1431.38 9635.65 1110.67
