 Energy(eV)     EyBz     EyBx     ExBz     ExBy
 1 195.407 37.568 200.726 45.7499 215.241 48.9155 217.766 52.8505
 1.01 199.333 39.6922 205.193 48.5044 220.335 51.8278 223.169 56.0859
 1.02 203.504 41.914 209.941 51.3978 225.738 54.886 228.904 59.4903
 1.03 207.926 44.2377 214.98 54.4366 231.462 58.0972 234.983 63.0723
 1.04 212.608 46.6676 220.321 57.6276 237.518 61.4686 241.421 66.8408
 1.05 217.559 49.2083 225.974 60.9782 243.918 65.0079 248.231 70.8052
 1.06 222.787 51.8648 231.951 64.4959 250.678 68.7234 255.43 74.9755
 1.07 228.303 54.6421 238.266 68.1889 257.812 72.6235 263.034 79.3621
 1.08 234.117 57.5458 244.93 72.0656 265.334 76.7175 271.06 83.9764
 1.09 240.242 60.5815 251.96 76.135 273.262 81.0149 279.528 88.8301
 1.1 246.688 63.7552 259.37 80.4067 281.614 85.526 288.457 93.9357
 1.11 253.468 67.0734 267.176 84.8905 290.408 90.2615 297.87 99.3066
 1.12 260.597 70.5427 275.395 89.5972 299.665 95.2329 307.787 104.957
 1.13 268.09 74.1704 284.046 94.538 309.406 100.452 318.235 110.901
 1.14 275.961 77.9639 293.148 99.7246 319.653 105.932 329.239 117.156
 1.15 284.227 81.9314 302.722 105.17 330.432 111.687 340.826 123.738
 1.16 292.907 86.0812 312.791 110.887 341.767 117.731 353.026 130.666
 1.17 302.019 90.4224 323.377 116.89 353.688 124.08 365.871 137.957
 1.18 311.583 94.9645 334.506 123.194 366.223 130.749 379.394 145.634
 1.19 321.621 99.7178 346.205 129.815 379.405 137.757 393.631 153.717
 1.2 332.156 104.693 358.501 136.77 393.266 145.122 408.62 162.231
 1.21 343.213 109.902 371.426 144.077 407.845 152.865 424.403 171.199
 1.22 354.818 115.356 385.012 151.756 423.178 161.006 441.024 180.648
 1.23 366.999 121.07 399.293 159.826 439.308 169.568 458.53 190.608
 1.24 379.786 127.056 414.307 168.31 456.279 178.576 476.971 201.108
 1.25 393.213 133.331 430.092 177.231 474.14 188.056 496.402 212.181
 1.26 407.312 139.909 446.693 186.614 492.94 198.035 516.881 223.863
 1.27 422.122 146.808 464.153 196.486 512.737 208.544 538.471 236.19
 1.28 437.682 154.046 482.521 206.875 533.588 219.616 561.239 249.204
 1.29 454.036 161.643 501.85 217.811 555.558 231.284 585.259 262.947
 1.3 471.229 169.62 522.195 229.328 578.716 243.586 610.607 277.468
 1.31 489.311 178 543.617 241.461 603.135 256.562 637.369 292.816
 1.32 508.336 186.807 566.18 254.247 628.896 270.257 665.636 309.046
 1.33 528.361 196.068 589.954 267.727 656.087 284.715 695.507 326.218
 1.34 549.449 205.81 615.013 281.945 684.799 299.989 727.088 344.395
 1.35 571.666 216.064 641.439 296.948 715.136 316.133 760.495 363.646
 1.36 595.087 226.864 669.318 312.787 747.207 333.206 795.853 384.047
 1.37 619.789 238.245 698.746 329.516 781.133 351.274 833.299 405.679
 1.38 645.859 250.246 729.823 347.195 817.043 370.405 872.981 428.631
 1.39 673.389 262.909 762.66 365.889 855.08 390.677 915.061 452.999
 1.4 702.481 276.279 797.378 385.666 895.398 412.172 959.715 478.889
 1.41 733.245 290.406 834.105 406.603 938.166 434.981 1007.13 506.416
 1.42 765.801 305.345 872.984 428.781 983.57 459.204 1057.53 535.705
 1.43 800.28 321.153 914.168 452.29 1031.81 484.948 1111.13 566.894
 1.44 836.827 337.896 957.826 477.228 1083.11 512.333 1168.19 600.134
 1.45 875.597 355.644 1004.14 503.699 1137.72 541.489 1228.99 635.591
 1.46 916.765 374.474 1053.31 531.822 1195.9 572.56 1293.83 673.449
 1.47 960.52 394.471 1105.55 561.722 1257.95 605.704 1363.06 713.907
 1.48 1007.07 415.728 1161.11 593.538 1324.2 641.097 1437.03 757.189
 1.49 1056.65 438.348 1220.25 627.425 1395.01 678.931 1516.17 803.541
 1.5 1109.51 462.443 1283.26 663.549 1470.79 719.421 1600.92 853.236
 1.51 1165.93 488.14 1350.46 702.097 1551.98 762.806 1691.81 906.577
 1.52 1226.23 515.577 1422.21 743.272 1639.09 809.35 1789.39 963.902
 1.53 1290.76 544.908 1498.89 787.302 1732.66 859.349 1894.3 1025.59
 1.54 1359.9 576.305 1580.93 834.436 1833.33 913.133 2007.23 1092.06
 1.55 1434.1 609.959 1668.83 884.954 1941.8 971.075 2128.99 1163.78
 1.56 1513.83 646.084 1763.11 939.165 2058.86 1033.59 2260.46 1241.29
 1.57 1599.66 684.921 1864.38 997.414 2185.4 1101.15 2402.64 1325.18
 1.58 1692.19 726.738 1973.3 1060.09 2322.43 1174.28 2556.66 1416.14
 1.59 1792.12 771.841 2090.63 1127.62 2471.09 1253.59 2723.82 1514.93
 1.6 1900.25 820.573 2217.19 1200.5 2632.69 1339.75 2905.56 1622.41
 1.61 2017.48 873.324 2353.96 1279.27 2808.72 1433.56 3103.56 1739.59
 1.62 2144.83 930.538 2501.99 1364.55 3000.89 1535.89 3319.71 1867.6
 1.63 2283.5 992.722 2662.5 1457.04 3211.17 1647.79 3556.21 2007.74
 1.64 2434.83 1060.46 2836.88 1557.54 3441.84 1770.42 3815.56 2161.52
 1.65 2600.4 1134.41 3026.7 1666.96 3695.52 1905.15 4100.68 2330.68
 1.66 2782.02 1215.36 3233.77 1786.33 3975.31 2053.58 4414.95 2517.22
 1.67 2981.83 1304.2 3460.14 1916.84 4284.81 2217.55 4762.31 2723.51
 1.68 3202.32 1401.97 3708.21 2059.88 4628.25 2399.25 5147.37 2952.29
 1.69 3446.41 1509.9 3980.73 2217.01 5010.65 2601.22 5575.56 3206.81
 1.7 3717.61 1629.44 4280.91 2390.09 5437.98 2826.5 6053.29 3490.88
 1.71 4020.07 1762.3 4612.47 2581.26 5917.38 3078.7 6588.19 3809.04
 1.72 4358.8 1910.52 4979.8 2793.02 6457.45 3362.14 7189.36 4166.73
 1.73 4739.85 2076.55 5388.03 3028.34 7068.61 3682.02 7867.74 4570.46
 1.74 5170.64 2263.36 5843.26 3290.71 7763.61 4044.66 8636.54 5028.09
 1.75 5660.32 2474.59 6352.73 3584.28 8558.13 4457.76 9511.81 5549.18
 1.76 6220.25 2714.68 6925.1 3914 9471.64 4930.8 10513.2 6145.42
 1.77 6864.8 2989.18 7570.76 4285.83 10528.6 5475.54 11665 6831.19
 1.78 7612.27 3305.06 8302.32 4706.96 11759.8 6106.66 12997.1 7624.31
 1.79 8486.34 3671.17 9135.11 5186.15 13205 6842.69 14547 8547.03
 1.8 9518.15 4098.95 10087.9 5734.12 14915.4 7707.2 16361.8 9627.27
 1.81 10749.3 4603.33 11183.9 6364.05 16958.4 8730.52 18501.1 10900.3
 1.82 12236.7 5204.16 12452 7092.3 19423.9 9952.07 21040.7 12411
 1.83 14059.5 5928.35 13928.1 7939.27 22433.7 11423.7 24077.7 14216.7
 1.84 16330.8 6812.96 15657.9 8930.56 26156.1 13214.2 27736 16390.4
 1.85 19215.9 7910.07 17698.8 10098.4 30827.8 15416.5 32174.7 19025.7
 1.86 22962.5 9293.83 20124.3 11483.2 36788.5 18156.8 37595.2 22240.7
 1.87 27946.7 11069.8 23028 13135.7 44532.1 21608.5 44247.7 26181.3
 1.88 34733.2 13382.4 26528.1 15117.6 54770.2 26006.9 52429.7 31020.1
 1.89 44096.9 16396.2 30771.2 17499.4 68446.5 31652.3 62462.1 36940.7
 1.9 56745.8 20165.2 35928.4 20349.2 86400.1 38828.2 74616.8 44093.7
 1.91 72001.6 24191.6 42176.5 23701.8 107812 47425.5 88945.8 52493.2
 1.92 85245 26839.7 49693.2 27553.3 127427 56190.2 104960 61826.1
 1.93 89264.4 26525.8 58892.6 32159 138074 63011.8 121187 71189.9
 1.94 84541.3 24963.9 70757.9 38438.4 139621 66903 134884 78935.3
 1.95 81066.2 25396.6 85896.4 46888.5 135997 67755.9 142579 82996.7
 1.96 84967.8 28645.4 103873 57032.5 128604 65305.3 141775 81914
 1.97 96842.8 34216.4 123322 67940.6 117980 59816.2 132691 75849.4
 1.98 115815 41468.6 141413 77976.7 105734 52407.8 118156 66490.1
 1.99 139125 49313.7 153835 84729.1 93757.5 44372.2 101797 55945.9
 2 157973 55183.5 156566 85983.4 82758.9 36500.3 86480.1 45814.1
 2.01 158508 55253.4 148654 81263.1 72474.2 29215.8 74006.5 37002.9
 2.02 139122 48950.6 132996 72234.8 64101.8 23210.7 65638.4 30079.9
 2.03 113532 40097.3 114112 61439.3 60286.6 19400.3 62499.3 25769.6
 2.04 92305.6 31926.1 95599.6 50872.3 61828.4 18414.4 64032.6 24847.1
 2.05 78137.1 25533.3 79304.1 41540.5 64724.7 19237.9 64420.5 25974.1
 2.06 68622.1 20880.8 65714 33718.4 63436.9 19289.2 58465.8 25656.3
 2.07 58517 17284.9 54649.9 27334.1 56107 17784.1 49422.8 23305.1
 2.08 47329.8 14155.6 45815.4 22179.3 45631.1 15483.1 41133.5 20324.3
 2.09 37985.3 11484.7 38909.4 18001.9 36418.7 13183.9 34544.6 17524.7
 2.1 31195 9307.62 33657.6 14588.6 29620.9 11201.4 29450 15111.1
 2.11 26486.8 7562.89 29920.5 11794.4 24748.1 9553.8 25491.7 13071.6
 2.12 23432.4 6189.26 27778.3 9564.79 21219.3 8182.67 22391.8 11343.8
 2.13 21889.9 5187.61 27623.4 7997.59 18656.3 7027.5 19971.1 9864.64
 2.14 21947.2 4667.21 30115.9 7461.79 16863.2 6042.93 18139.7 8584.55
 2.15 23452.5 4805.07 35150.8 8533.85 15795.9 5204.83 16900.5 7474.07
 2.16 24988.7 5418.15 39203.8 10883 15571.9 4524.21 16379.8 6540.48
 2.17 24996.3 5713.44 37660.8 12386 16490.8 4084.51 16866.3 5872.1
 2.18 24614.3 5448.28 32275.9 12056.2 18821.8 4094.31 18654.9 5708.94
 2.19 25121.8 5107.64 26917.3 10814.7 21639.8 4739.77 21028.1 6305.3
 2.2 25171.6 4939.65 23027.3 9496.04 22074.4 5545.15 21420.9 7186.35
 2.21 23829.9 4813.05 20703 8505.24 19607.5 5730.73 19112.4 7428.29
 2.22 22296.1 4772.89 19372.6 8022.81 16741.4 5400.48 16159.1 7060.85
 2.23 20314.4 4735.93 17815.6 7776.97 14776.2 4947.66 13726 6503.64
 2.24 18013.3 4521.8 15725.1 7338.39 13675.3 4534.49 11895.7 5954.34
 2.25 15825.4 4229.84 13722.9 6738.87 12839.5 4178.22 10507.3 5455.4
 2.26 13427.6 3906.12 12080.2 6132.71 11688.4 3846.35 9426.1 5013.64
 2.27 11181.6 3555.66 10768.3 5583.38 10283.4 3524.98 8553.64 4626.25
 2.28 9444.32 3222.7 9705.98 5101.03 8849.41 3232.64 7824.83 4285.3
 2.29 8163.25 2929.3 8827.42 4679.65 7647.98 2977.31 7206.89 3983.17
 2.3 7199.36 2676.01 8086.5 4310.22 6737.61 2754.56 6677.42 3713.94
 2.31 6448.47 2457.11 7451.36 3984.37 6045.84 2558.37 6217.7 3472.63
 2.32 5844.29 2266.5 6899.58 3695.09 5501.22 2383.95 5813.49 3255.07
 2.33 5345.07 2099.09 6414.97 3436.68 5056.88 2227.64 5454.34 3057.86
 2.34 4923.74 1950.84 5985.48 3204.53 4683.76 2086.62 5132.43 2878.2
 2.35 4562.09 1818.57 5601.94 2994.9 4363.47 1958.66 4841.82 2713.81
 2.36 4247.41 1699.8 5257.23 2804.71 4083.87 1841.98 4577.88 2562.78
 2.37 3970.54 1592.53 4945.67 2631.45 3836.57 1735.11 4336.91 2423.54
 2.38 3724.69 1495.14 4662.72 2472.99 3615.6 1636.84 4115.94 2294.74
 2.39 3504.7 1406.32 4404.63 2327.56 3416.5 1546.17 3912.5 2175.24
 2.4 3306.54 1324.99 4168.32 2193.66 3235.89 1462.24 3724.57 2064.07
 2.41 3127.03 1250.24 3951.22 2070 3071.12 1384.34 3550.42 1960.38
 2.42 2963.63 1181.29 3751.14 1955.5 2920.07 1311.83 3388.6 1863.44
 2.43 2814.25 1117.51 3566.23 1849.2 2781.03 1244.18 3237.86 1772.62
 2.44 2677.15 1058.32 3394.9 1750.27 2652.6 1180.92 3097.11 1687.35
 2.45 2550.92 1003.27 3235.78 1658 2533.58 1121.64 2965.44 1607.13
 2.46 2434.33 951.92 3087.68 1571.75 2422.99 1065.98 2842 1531.53
 2.47 2326.36 903.918 2949.56 1490.96 2319.98 1013.63 2726.1 1460.16
 2.48 2226.13 858.944 2820.51 1415.15 2223.82 964.287 2617.08 1392.66
 2.49 2132.87 816.72 2699.73 1343.88 2133.88 917.713 2514.4 1328.73
 2.5 2045.93 776.997 2586.51 1276.76 2049.61 873.681 2417.54 1268.08
 2.51 1964.73 739.557 2480.23 1213.45 1970.54 831.987 2326.07 1210.46
 2.52 1888.78 704.204 2380.33 1153.62 1896.23 792.449 2239.59 1155.64
 2.53 1817.64 670.763 2286.31 1097.01 1826.33 754.904 2157.73 1103.42
 2.54 1750.91 639.077 2197.74 1043.36 1760.49 719.201 2080.18 1053.6
 2.55 1688.27 609.005 2114.2 992.437 1698.43 685.207 2006.65 1006.01
 2.56 1629.39 580.42 2035.36 944.042 1639.89 652.797 1936.87 960.498
 2.57 1574.03 553.206 1960.88 897.984 1584.63 621.86 1870.62 916.917
 2.58 1521.93 527.258 1890.5 854.093 1532.46 592.292 1807.68 875.137
 2.59 1472.91 502.482 1823.94 812.212 1483.2 564 1747.87 835.035
 2.6 1426.77 478.789 1761 772.199 1436.68 536.898 1691.01 796.501
 2.61 1383.36 456.101 1701.47 733.922 1392.76 510.905 1636.95 759.431
 2.62 1342.54 434.345 1645.17 697.262 1351.34 485.948 1585.56 723.731
 2.63 1304.22 413.452 1591.96 662.106 1312.31 461.96 1536.72 689.312
 2.64 1268.3 393.361 1541.72 628.353 1275.6 438.877 1490.34 656.093
 2.65 1234.74 374.014 1494.36 595.906 1241.15 416.641 1446.32 623.997
 2.66 1203.51 355.357 1449.8 564.677 1208.94 395.198 1404.62 592.955
 2.67 1174.64 337.341 1408.04 534.583 1178.98 374.496 1365.18 562.9
 2.68 1148.23 319.917 1369.11 505.545 1151.34 354.489 1327.98 533.771
 2.69 1124.44 303.043 1333.13 477.49 1126.14 335.131 1293.04 505.51
 2.7 1103.62 286.676 1300.33 450.348 1103.6 316.382 1260.42 478.064
 2.71 1086.34 270.778 1271.15 424.056 1084.15 298.201 1230.22 451.382
 2.72 1073.6 255.318 1246.41 398.562 1068.49 280.552 1202.67 425.417
 2.73 1067.2 240.284 1227.51 373.84 1057.85 263.409 1178.14 400.129
 2.74 1070.08 225.712 1216.89 349.949 1054.43 246.757 1157.25 375.49
 2.75 1085.9 211.764 1217.67 327.15 1061.88 230.628 1140.98 351.496
 2.76 1113.2 198.752 1229.16 305.982 1084.86 215.153 1130.52 328.185
 2.77 1135.52 186.575 1238.63 286.429 1121.55 200.574 1126.8 305.558
 2.78 1144.72 174.238 1238.96 267.123 1145.93 186.936 1131.83 283.53
 2.79 1154.11 161.514 1240.46 247.625 1130.5 173.612 1145.98 262.198
 2.8 1165.66 149.29 1246.85 228.306 1099.25 160.152 1157.33 241.646
 2.81 1185.13 138.656 1274.39 209.66 1078.41 146.771 1160.42 221.598
 2.82 1191.18 129.846 1331.65 193.068 1067.05 133.833 1174.78 202.327
 2.83 1152.55 120.967 1368.44 179.162 1054.01 121.567 1200.31 184.659
 2.84 1096.1 110.621 1321.44 165.12 1036.85 109.774 1197.4 168.122
 2.85 1053.63 99.3659 1235.81 148.819 1020.08 97.9059 1156.63 150.86
 2.86 1031.45 88.0428 1169.88 131.536 1012.27 86.0023 1116.55 132.822
 2.87 1025.79 77.0499 1132.63 114.533 1016.11 74.408 1095.22 114.957
 2.88 1032.86 66.5167 1117.54 98.2758 1030.65 63.3215 1091.74 97.79
 2.89 1050.69 56.4967 1118.98 82.9148 1055.13 52.8476 1102.87 81.5482
 2.9 1078.71 47.0434 1134.06 68.5366 1089.65 43.0828 1126.93 66.3944
 2.91 1117.36 38.2372 1161.85 55.2505 1135.16 34.1522 1163.82 52.523
 2.92 1167.88 30.1992 1202.78 43.2207 1193.32 26.2306 1214.66 40.2023
 2.93 1232.28 23.1063 1258.33 32.6881 1266.58 19.5624 1281.63 29.8083
 2.94 1313.44 17.2115 1331 23.9975 1358.36 14.4895 1368.01 21.8668
 2.95 1415.36 12.8739 1424.45 17.6363 1473.33 11.4925 1478.44 17.115
 2.96 1543.59 10.6061 1543.85 14.2936 1617.89 11.2522 1619.39 16.5945
 2.97 1705.8 11.1466 1696.4 14.9504 1800.97 14.7468 1799.88 21.794
 2.98 1912.85 15.5745 1892.2 21.0203 2035.18 23.404 2032.6 34.8747
 2.99 2180.34 25.4963 2145.7 34.5732 2338.75 39.3502 2335.83 59.0324
 3 2531.23 43.3551 2477.88 58.7003 2738.64 65.8246 2736.33 99.0932
 3.01 3000.21 72.9595 2920.01 98.1213 3275.79 107.889 3274.26 162.518
 3.02 3641.2 120.407 3519.81 160.224 4014.2 173.673 4011.36 261.131
 3.03 4540.43 195.733 4352.15 256.878 5056.57 276.607 5044.74 414.142
 3.04 5839.15 315.83 5537.49 407.647 6571.2 439.381 6529.69 653.385
 3.05 7769.86 509.294 7272.77 645.357 8832.27 700.457 8713.7 1031.79
 3.06 10693.5 822.13 9876.18 1024.87 12248.9 1121.24 11967.5 1633.57
 3.07 15027.9 1312.4 13810.2 1631.59 17215.7 1774.91 16717.2 2568.35
 3.08 20680.8 1990.03 19466.4 2561.78 23291.1 2647.31 22924 3874.82
 3.09 26002.5 2689.02 26091.2 3770.71 28089.7 3443.89 28718.2 5227.67
 3.1 28754.4 3129.3 30392.3 4786.8 29449.7 3776.34 30324.2 5859.08
 3.11 28515.2 3235.7 29397.5 5024.91 27904.2 3645.07 26746.8 5467.52
 3.12 25119.9 3013.97 24342.1 4465.64 23883.4 3181.58 21145.2 4547.77
 3.13 19475.9 2493.14 18450.1 3554.52 18395.8 2533.15 16005.5 3563.15
 3.14 14255.1 1923.48 13677 2701.17 13545.4 1931.8 12078.5 2732.53
 3.15 10516 1462.54 10303.4 2040.8 10091.7 1469.24 9302.38 2098.77
 3.16 8022.76 1122.26 8003.12 1557.13 7780.42 1130.54 7380.1 1627.53
 3.17 6362.79 873.089 6430.25 1202.78 6232.88 881.026 6042.51 1274.14
 3.18 5239.92 686.938 5341.76 937.859 5181.82 692.821 5103.51 1003.48
 3.19 4471.57 543.989 4583.36 734.694 4463.03 546.947 4444.55 791.219
 3.2 3948.93 431.199 4060.16 575.015 3979.12 431.013 3992.77 621.124
 3.21 3608.45 340.139 3715.41 446.976 3674.19 337.055 3705.69 482.65
 3.22 3415.48 265.472 3517.82 343.079 3519.8 260.151 3562.59 369.327
 3.23 3356.07 204.089 3455.11 258.985 3508.38 197.698 3560.83 277.955
 3.24 3434.25 154.759 3532 193.02 3652.33 149.269 3716.27 208.561
 3.25 3673.98 118.286 3772.25 146.358 3988.38 117.103 4068.33 165.25
 3.26 4126.72 98.3417 4225.73 124.05 4589.17 107.569 4691.5 158.477
 3.27 4887.37 103.467 4982.92 137.502 5585.8 134.459 5716.62 209.875
 3.28 6123.07 151.271 6201.24 209.6 7204.99 225.645 7365.16 361.661
 3.29 8113.49 276.291 8145.18 384.543 9802.77 434.406 9982.55 692.101
 3.3 11249.1 539.584 11212.1 742.898 13749.7 845.656 13963.2 1325.31
 3.31 15726.8 1015.61 15763.7 1404.14 18683.9 1514.75 19166.2 2359.97
 3.32 20554.5 1691.48 21260.7 2426.23 22307.9 2261.1 23542.5 3575.1
 3.33 22953.5 2318.75 24997.3 3506.16 22050.3 2672.96 23853.5 4302.41
 3.34 20884 2527.84 24003.7 3988.51 18348.5 2582.01 20249.5 4212.73
 3.35 16257 2292.03 19456.9 3698.51 13829.5 2208.17 15646.4 3650.15
 3.36 11954.4 1900.77 14622.8 3084.61 10231.9 1806.93 11830.5 3016.25
 3.37 8875.31 1543.24 10928.5 2495.92 7756.59 1474.61 9087.33 2476.77
 3.38 6822.7 1261.71 8366.09 2027.01 6105.73 1217.39 7180.65 2053.15
 3.39 5462.97 1046.43 6610.36 1669.47 5001.47 1019.19 5845.87 1724.52
 3.4 4561.31 880.408 5388.1 1395.86 4266.46 864.029 4894.06 1466.32
 3.41 3982.34 750.38 4518.55 1182.28 3803.69 740.576 4204.15 1259.19
 3.42 3658.6 648.752 3888.87 1011.44 3570.17 642.678 3701.31 1089.34
 3.43 3542.3 573.803 3429.22 871.55 3532.61 569.548 3339.51 947.636
 3.44 3493.34 524.052 3095.15 754.691 3551.58 520.389 3084.77 828.203
 3.45 3288.51 483 2857.55 654.876 3391.42 479.499 2903.3 725.065
 3.46 2976.91 433.652 2704.16 567.126 3102.43 430.009 2786.44 631.503
 3.47 2751.95 379.549 2638.21 488.481 2903.24 375.221 2760.42 545.094
 3.48 2683.23 327.53 2675.07 417.688 2887.82 322.799 2861.28 466.831
 3.49 2791.78 280.908 2848.59 355.215 3097.39 277.862 3144.31 400.403
 3.5 3125.93 243.238 3225.04 304.861 3608.53 247.769 3708.49 356.186
 3.51 3786.79 223.169 3919.69 277.845 4546.29 249.399 4700.98 359.851
 3.52 4897.1 240.548 5079.6 300.214 5929.74 313.328 6177.09 458.535
 3.53 6346.22 324.097 6675.84 412.954 7150.88 449.047 7571.78 671.568
 3.54 7300.98 464.837 7983.55 618.056 7118.81 569.398 7706.65 869.381
 3.55 6843.14 564.655 7838.59 785.245 6027.45 587.134 6656.41 907.303
 3.56 5585.99 560.863 6549.59 797.03 4939.28 534.627 5534.07 829.181
 3.57 4562.11 503.049 5344.78 715.521 4353.95 471.862 4922.87 731.492
 3.58 4066.11 444.387 4706.21 627.629 4293.1 434.942 4890.6 676.025
 3.59 4017.94 411.321 4595.64 577.642 4502.38 442.483 5175.4 695.98
 3.6 4128.67 412.896 4707.37 580.93 4440.34 471.978 5139.49 754.323
 3.61 3967.24 427.755 4523.27 605.443 3959.97 473.851 4552.15 763.666
 3.62 3471.24 418.994 3917.36 591.876 3440.01 444.561 3850.33 713.485
 3.63 2978 386.957 3296.96 539.407 3083.7 406.566 3337.74 642.09
 3.64 2631.75 347.664 2876.39 476.177 2839.91 369.333 3031.57 572.302
 3.65 2450.87 307.789 2666.74 415.548 2717.75 333.218 2914.31 509.914
 3.66 2456.45 271.888 2659.16 362.978 2774.08 304.253 2990.05 462.3
 3.67 2659.5 244.103 2856.27 322.365 2967.55 286.709 3204.41 433.593
 3.68 3082.42 229.83 3291.62 300.068 3245.82 279.576 3507.06 421.591
 3.69 3737.56 239.928 3999.81 311.121 3631.3 284.324 3917.68 427.784
 3.7 4426.33 284.621 4791.57 371.75 4129.54 313.006 4459.11 470.981
 3.71 4677.9 343.853 5148.41 456.926 4384.58 365.144 4776.54 553.178
 3.72 4333.82 379.715 4839.01 511.495 4030.76 399.118 4451 610.083
 3.73 3695.99 374.421 4157.44 506.437 3393.67 389.492 3786.44 597.631
 3.74 3221.76 343.563 3619.4 462.581 2936.89 356.157 3284.2 545.288
 3.75 3117.85 313.492 3478.75 418.441 2809.96 322.896 3123.86 491.32
 3.76 3386 305.542 3756.32 404.771 3017.36 306.296 3324.66 462.275
 3.77 3785.95 336.134 4217.44 446.584 3430.19 322.243 3769.61 484.066
 3.78 3746.82 386.539 4238.46 521.768 3611.63 367.692 4008.59 556.223
 3.79 3140.96 406.244 3608.31 555.372 3222.85 400.877 3640.82 614.409
 3.8 2456.27 390.347 2845.38 534.85 2573.53 396.997 2956.68 613.12
 3.81 1945.64 361.407 2260.36 493.313 2030.06 372.146 2361.57 575.424
 3.82 1604.18 331.827 1863.62 450.275 1661.82 343.195 1948.65 529.51
 3.83 1380.9 305.079 1601.44 411.389 1425.44 316.311 1678.09 486.306
 3.84 1239.05 281.585 1432.63 377.408 1277.73 292.702 1504.78 448.187
 3.85 1158.62 261.137 1334.11 348.019 1193.66 272.2 1401.93 415.047
 3.86 1131.6 243.776 1296.31 323.197 1165.63 254.9 1361.25 387.059
 3.87 1150.09 230.344 1310.08 304.003 1185.38 242.076 1374.15 366.201
 3.88 1181.73 221.406 1339.22 291.109 1209.26 234.589 1394.33 353.813
 3.89 1189.12 214.921 1341.87 281.632 1180.04 228.979 1358.82 344.48
 3.9 1175.57 209.177 1322.02 273.19 1116.88 221.285 1286.09 331.966
 3.91 1135.95 203.591 1274.29 265.009 1063.46 212.163 1222.99 317.237
 3.92 1076.97 196.379 1204.89 254.719 1026.41 202.937 1176.79 302.359
 3.93 1034.59 187.752 1152.55 242.599 1005.09 193.723 1147.04 287.563
 3.94 1023.55 179.546 1134.12 231.07 1005.9 184.955 1141.04 273.538
 3.95 1024.58 172.657 1130.21 221.329 1027.83 177.064 1157.61 260.911
 3.96 1022.84 165.786 1124.45 211.706 1072.74 170.395 1198.86 250.14
 3.97 1049.94 158.691 1149.82 201.88 1142.12 165.64 1266.99 242.275
 3.98 1125.23 154.101 1228.29 195.39 1226.57 164.196 1353.01 239.456
 3.99 1193.91 154.109 1302.61 194.994 1269.94 166.241 1398.11 241.972
 4 1168.13 154.86 1275.73 195.67 1216.57 167.236 1341.47 242.975
