 Energy(eV)     EyBz     EyBx     ExBz     ExBy
 1 559.771 173.961 602.745 239.327 652.589 246.825 678.286 283.113
 1.01 573.886 183.572 620.883 253.695 672.319 261.339 700.786 300.565
 1.02 588.82 193.614 640.091 268.777 693.182 276.562 724.62 318.932
 1.03 604.602 204.108 660.413 284.608 715.223 292.528 749.845 338.259
 1.04 621.264 215.074 681.893 301.222 738.49 309.27 776.523 358.596
 1.05 638.84 226.533 704.577 318.656 763.034 326.825 804.72 379.993
 1.06 657.365 238.508 728.516 336.947 788.91 345.233 834.505 402.504
 1.07 676.879 251.023 753.762 356.138 816.174 364.533 865.953 426.188
 1.08 697.422 264.104 780.373 376.271 844.889 384.769 899.141 451.104
 1.09 719.039 277.778 808.408 397.392 875.119 405.987 934.154 477.318
 1.1 741.776 292.075 837.931 419.548 906.935 428.235 971.081 504.897
 1.11 765.684 307.024 869.009 442.79 940.411 451.565 1010.02 533.914
 1.12 790.816 322.66 901.713 467.173 975.624 476.03 1051.06 564.446
 1.13 817.231 339.016 936.12 492.752 1012.66 501.69 1094.33 596.575
 1.14 844.989 356.131 972.31 519.588 1051.61 528.604 1139.92 630.388
 1.15 874.157 374.045 1010.37 547.746 1092.56 556.839 1187.97 665.978
 1.16 904.805 392.799 1050.39 577.291 1135.63 586.463 1238.61 703.444
 1.17 937.008 412.439 1092.47 608.297 1180.91 617.552 1291.96 742.89
 1.18 970.848 433.014 1136.71 640.84 1228.53 650.183 1348.2 784.43
 1.19 1006.41 454.576 1183.22 675.001 1278.6 684.441 1407.46 828.182
 1.2 1043.79 477.181 1232.12 710.866 1331.27 720.416 1469.93 874.276
 1.21 1083.09 500.888 1283.54 748.527 1386.68 758.204 1535.79 922.847
 1.22 1124.41 525.762 1337.61 788.082 1444.97 797.908 1605.23 974.044
 1.23 1167.87 551.873 1394.46 829.636 1506.32 839.638 1678.45 1028.02
 1.24 1213.59 579.293 1454.27 873.3 1570.9 883.512 1755.7 1084.95
 1.25 1261.72 608.104 1517.18 919.194 1638.89 929.657 1837.2 1145.02
 1.26 1312.38 638.391 1583.38 967.446 1710.51 978.209 1923.22 1208.4
 1.27 1365.75 670.246 1653.05 1018.19 1785.97 1029.31 2014.04 1275.33
 1.28 1421.98 703.771 1726.4 1071.58 1865.51 1083.13 2109.95 1346.01
 1.29 1481.26 739.074 1803.63 1127.76 1949.39 1139.83 2211.29 1420.7
 1.3 1543.79 776.271 1884.99 1186.9 2037.88 1199.59 2318.41 1499.66
 1.31 1609.78 815.491 1970.73 1249.2 2131.28 1262.61 2431.68 1583.16
 1.32 1679.47 856.869 2061.1 1314.83 2229.92 1329.11 2551.51 1671.51
 1.33 1753.1 900.557 2156.41 1384.02 2334.14 1399.31 2678.35 1765.05
 1.34 1830.95 946.716 2256.97 1456.98 2444.34 1473.48 2812.68 1864.14
 1.35 1913.32 995.524 2363.11 1533.96 2560.91 1551.88 2955.02 1969.16
 1.36 2000.54 1047.17 2475.2 1615.22 2684.32 1634.81 3105.94 2080.53
 1.37 2092.95 1101.88 2593.64 1701.06 2815.06 1722.59 3266.06 2198.72
 1.38 2190.96 1159.86 2718.85 1791.77 2953.66 1815.57 3436.05 2324.23
 1.39 2294.98 1221.38 2851.3 1887.7 3100.71 1914.15 3616.65 2457.6
 1.4 2405.48 1286.71 2991.5 1989.2 3256.86 2018.73 3808.65 2599.43
 1.41 2522.99 1356.15 3140 2096.67 3422.81 2129.79 4012.94 2750.38
 1.42 2648.06 1430.04 3297.4 2210.55 3599.34 2247.83 4230.48 2911.16
 1.43 2781.31 1508.75 3464.34 2331.3 3787.3 2373.39 4462.33 3082.55
 1.44 2923.45 1592.69 3641.55 2459.43 3987.64 2507.11 4709.64 3265.43
 1.45 3075.22 1682.29 3829.81 2595.51 4201.4 2649.64 4973.69 3460.74
 1.46 3237.49 1778.07 4029.97 2740.15 4429.73 2801.74 5255.9 3669.52
 1.47 3411.18 1880.57 4242.98 2894.02 4673.91 2964.23 5557.83 3892.94
 1.48 3597.36 1990.42 4469.87 3057.87 4935.36 3138.03 5881.19 4132.29
 1.49 3797.19 2108.3 4711.77 3232.5 5215.67 3324.17 6227.91 4388.97
 1.5 4011.99 2234.98 4969.94 3418.81 5516.61 3523.77 6600.09 4664.56
 1.51 4243.23 2371.32 5245.78 3617.8 5840.16 3738.1 7000.12 4960.83
 1.52 4492.57 2518.3 5540.81 3830.57 6188.54 3968.59 7430.63 5279.74
 1.53 4761.88 2677.01 5856.75 4058.33 6564.27 4216.83 7894.57 5623.47
 1.54 5053.29 2848.69 6195.48 4302.43 6970.18 4484.63 8395.25 5994.48
 1.55 5369.21 3034.75 6559.12 4564.38 7409.45 4774 8936.37 6395.52
 1.56 5712.37 3236.77 6950.02 4845.86 7885.74 5087.24 9522.12 6829.69
 1.57 6085.94 3456.6 7370.83 5148.75 8403.18 5426.97 10157.2 7300.49
 1.58 6493.51 3696.32 7824.49 5475.15 8966.51 5796.14 10847 7811.88
 1.59 6939.25 3958.33 8314.34 5827.43 9581.18 6198.16 11597.5 8368.34
 1.6 7427.98 4245.42 8844.11 6208.24 10253.4 6636.93 12415.5 8974.97
 1.61 7965.29 4560.82 9418.05 6620.61 10990.5 7116.91 13309.1 9637.57
 1.62 8557.73 4908.29 10040.9 7067.92 11800.9 7643.31 14287 10362.8
 1.63 9213 5292.23 10718.2 7554.04 12694.4 8222.15 15359.6 11158.2
 1.64 9940.16 5717.82 11456.1 8083.37 13682.5 8860.44 16538.6 12032.7
 1.65 10750 6191.21 12261.7 8660.92 14778.9 9566.42 17837.8 12996.2
 1.66 11655.5 6719.7 13143 9292.43 15999.6 10349.8 19272.9 14060.4
 1.67 12672 7312.06 14109.6 9984.49 17364.1 11222.1 20862.1 15238.8
 1.68 13818.5 7978.86 15172 10744.7 18895.4 12197 22626.7 16547.2
 1.69 15117.8 8732.92 16342.7 11581.8 20621.6 13290.9 24591.4 18003.9
 1.7 16598.4 9589.97 17636.2 12505.9 22577.1 14523.8 26785.4 19630.2
 1.71 18295.3 10569.4 19069.3 13528.8 24803.9 15919.9 29242.4 21451.3
 1.72 20252.6 11695.4 20661.6 14664.3 27354.6 17508.9 32002.5 23496.5
 1.73 22526.4 12998.2 22436 15928.2 30295 19327.9 35112.4 25800.3
 1.74 25188.1 14516.3 24419.5 17339.2 33708.8 21423 38627.2 28403.4
 1.75 28330.4 16298.8 26643.7 18919.1 37703.5 23853.2 42611.8 31353.4
 1.76 32074.8 18409 29145.8 20693.2 42419.1 26693.6 47141.9 34705.8
 1.77 36581.7 20929 31969.6 22691 48040 30042.4 52306 38525.6
 1.78 42065.4 23965.6 35166.4 24946.2 54812.1 34028.3 58206.2 42887.4
 1.79 48813.2 27657.1 38795.9 27497.2 63065.6 38822.4 64958.7 47875.9
 1.8 57209.2 32179.5 42926.5 30385.4 73243.7 44652.4 72692.9 53585
 1.81 67757.9 37745.3 47634.6 33652.7 85930.2 51817.3 81546.6 60114.1
 1.82 81088.7 44580.2 53001.3 37334.2 101848 60689.3 91657.3 67561.2
 1.83 97893.7 52840.9 59103.2 41441.6 121746 71666.9 103144 76009.1
 1.84 118695 62404.5 65995.8 45931.3 145998 84987.3 116076 85502
 1.85 143278 72462.1 73694.5 50652.1 173645 100271 130424 96008.4
 1.86 169582 80990.5 82219.9 55341.4 201131 115873 145991 107368
 1.87 191424 84541.1 91986.5 60051.7 222520 128881 162317 119224
 1.88 196753 79899.6 104660 66510.9 233240 136806 178599 130959
 1.89 180996 69796.3 122142 77587.3 233896 139491 193638 141662
 1.9 161220 62531.9 143612 92957.2 228646 138515 205918 150180
 1.91 153016 62386.7 167196 110267 221068 135290 213851 155307
 1.92 159478 69330.9 191761 128093 212647 130321 216188 156082
 1.93 178592 82256.9 216089 145444 203403 123504 212441 152094
 1.94 205875 99131.9 238203 160966 192638 114525 203131 143644
 1.95 232922 115767 255407 172831 179389 103134 189721 131673
 1.96 248388 126064 264932 179172 163383 89633.3 174395 117548
 1.97 245384 125833 264966 178783 146523 75415.2 159948 102966
 1.98 227615 116337 255487 171702 133063 62835.9 149994 90216.1
 1.99 205127 102372 238307 159218 127821 54615.7 148700 82728.2
 2 186828 88333.9 216266 143309 132835 52756.1 156419 83604.7
 2.01 176842 76720.4 192167 125938 143325 55501.5 162143 89141.2
 2.02 170188 67829.5 168110 108663 151178 58200.6 154692 90130.5
 2.03 153717 59627.4 145555 92618.3 147131 58066.9 138180 84672.2
 2.04 127400 50860 125506 78348.3 127731 53766 120341 76315.6
 2.05 102383 42523.4 108287 65822.7 104390 47125.6 104482 67654.6
 2.06 83112.5 35393.5 93813.8 54855.3 85158.3 40517.2 91158.2 59673.5
 2.07 68997.7 29503.2 82004.1 45282.4 70815.7 34774.2 80095.8 52594.3
 2.08 58709.8 24651.7 72979.4 37019.1 60194.3 29936.8 70896.1 46372.3
 2.09 51334.2 20664.2 67279.8 30185.7 52240.1 25856.5 63226.9 40890.1
 2.1 46453.7 17484.4 66145.7 25379.8 46289.7 22383.7 56864.2 36025.7
 2.11 44026.9 15227.7 71429.8 24069.1 42018.3 19414.3 51711.6 31683.1
 2.12 43942.2 14080 83119.9 28121 39410.3 16914.7 47845.9 27822.7
 2.13 45261.7 13738 93675.2 36070.1 38806 14974.7 45618.4 24534.2
 2.14 47308.2 13348.3 93007.9 41364.3 40944.1 13920.5 45782 22204.6
 2.15 51626 13053.3 83121.4 40997.9 46424.4 14397 49206.3 21734.1
 2.16 58538.9 13979.3 71455.1 37394 53186.2 16721.4 54761.2 23952.7
 2.17 62370.1 15817.6 61734.3 33035.8 55096 19184.1 57185.9 27231.8
 2.18 59878.7 16611.3 55004.7 29258.4 50417.4 19581.8 53682.4 28445.4
 2.19 56243.7 16512.2 51333.3 27019.8 44051.2 18334.3 47560 27391.5
 2.2 52611.1 16402.6 48992 26448.9 39356.9 16722.5 41734.3 25441.6
 2.21 47471.3 15917.2 45386.9 25896.6 36979.6 15356.5 36995.2 23457
 2.22 42562.7 15175.6 40799.6 24445.2 36473 14367.3 33232.2 21651.3
 2.23 37777.5 14485.8 36462.2 22565.4 36342 13661.1 30183 20014.4
 2.24 32373.9 13564.7 32767.9 20690.1 34836.9 12920.2 27635 18533.8
 2.25 27496.8 12443.5 29678.1 18973.1 31009 12037.9 25436.4 17207
 2.26 23714.6 11350.6 27073.8 17441.7 26227.2 11103.5 23525 16027.8
 2.27 20852.3 10379 24849.5 16083.3 22266.7 10228.1 21864.2 14974.7
 2.28 18636.8 9535.26 22925 14876.4 19361.3 9451.26 20408 14026.1
 2.29 16868.5 8802.43 21241 13799.6 17212.9 8768.39 19116.4 13166.1
 2.3 15417.4 8161.31 19753.4 12834.2 15559.1 8165.14 17959.4 12382.4
 2.31 14199 7595.56 18428.6 11964.6 14234 7627.91 16914.9 11665.3
 2.32 13156.8 7092.16 17240.7 11177.7 13137.2 7145.73 15965.8 11006.5
 2.33 12251.9 6640.88 16169.3 10462.6 12206 6709.95 15098.9 10399.4
 2.34 11456.8 6233.64 15198 9810.26 11399.8 6313.76 14303.3 9838.02
 2.35 10750.9 5864 14313.5 9213.11 10691.4 5951.71 13570.4 9317.51
 2.36 10119.1 5526.77 13504.9 8664.68 10061.4 5619.39 12892.9 8833.6
 2.37 9549.47 5217.7 12763 8159.47 9495.76 5313.16 12264.6 8382.63
 2.38 9032.82 4933.28 12080.1 7692.79 8984.05 5029.99 11680.4 7961.4
 2.39 8561.72 4670.57 11449.6 7260.59 8518.14 4767.33 11135.9 7567.12
 2.4 8130.2 4427.12 10866.2 6859.36 8091.64 4523.01 10627.1 7197.32
 2.41 7733.3 4200.81 10324.8 6486.03 7699.42 4295.17 10150.7 6849.85
 2.42 7366.95 3989.85 9821.34 6137.94 7337.32 4082.19 9703.89 6522.78
 2.43 7027.69 3792.7 9352.21 5812.72 7001.88 3882.67 9284 6214.4
 2.44 6712.62 3607.99 8914.22 5508.3 6690.18 3695.38 8888.79 5923.19
 2.45 6419.24 3434.56 8504.55 5222.85 6399.79 3519.23 8516.23 5647.76
 2.46 6145.41 3271.38 8120.75 4954.72 6128.59 3353.26 8164.53 5386.9
 2.47 5889.29 3117.53 7760.62 4702.45 5874.78 3196.62 7832.08 5139.49
 2.48 5649.25 2972.21 7422.22 4464.74 5636.8 3048.54 7517.43 4904.52
 2.49 5423.89 2834.69 7103.79 4240.41 5413.26 2908.34 7219.29 4681.1
 2.5 5211.97 2704.35 6803.8 4028.41 5202.97 2775.41 6936.49 4468.38
 2.51 5012.39 2580.6 6520.84 3827.78 5004.87 2649.18 6667.96 4265.61
 2.52 4824.19 2462.92 6253.66 3637.67 4818.02 2529.15 6412.75 4072.12
 2.53 4646.5 2350.86 6001.12 3457.29 4641.58 2414.87 6169.99 3887.26
 2.54 4478.57 2243.99 5762.22 3285.92 4474.81 2305.93 5938.89 3710.47
 2.55 4319.72 2141.92 5536.04 3122.93 4317.05 2201.93 5718.74 3541.2
 2.56 4169.34 2044.32 5321.73 2967.73 4167.71 2102.53 5508.88 3378.98
 2.57 4026.91 1950.85 5118.57 2819.76 4026.27 2007.41 5308.71 3223.35
 2.58 3891.94 1861.24 4925.87 2678.54 3892.26 1916.29 5117.72 3073.9
 2.59 3764.03 1775.21 4743.02 2543.61 3765.27 1828.88 4935.4 2930.25
 2.6 3642.8 1692.53 4569.49 2414.56 3644.94 1744.93 4761.31 2792.04
 2.61 3527.96 1612.95 4404.8 2291 3530.97 1664.22 4595.07 2658.94
 2.62 3419.26 1536.29 4248.52 2172.57 3423.09 1586.54 4436.33 2530.64
 2.63 3316.48 1462.33 4100.3 2058.94 3321.1 1511.66 4284.77 2406.86
 2.64 3219.52 1390.91 3959.82 1949.82 3224.87 1439.42 4140.14 2287.34
 2.65 3128.31 1321.85 3826.87 1844.91 3134.32 1369.63 4002.22 2171.83
 2.66 3042.92 1255 3701.28 1743.96 3049.49 1302.13 3870.83 2060.09
 2.67 2963.53 1190.21 3583.02 1646.72 2970.53 1236.75 3745.88 1951.92
 2.68 2890.56 1127.33 3472.16 1552.96 2897.81 1173.35 3627.32 1847.12
 2.69 2824.73 1066.25 3369 1462.47 2831.98 1111.79 3515.21 1745.49
 2.7 2767.33 1006.82 3274.14 1375.05 2774.22 1051.92 3409.74 1646.86
 2.71 2720.59 948.959 3188.71 1290.53 2726.61 993.616 3311.29 1551.07
 2.72 2688.4 892.578 3114.73 1208.77 2692.85 936.799 3220.53 1457.97
 2.73 2677.39 837.712 3055.66 1129.69 2679.57 881.472 3138.68 1367.42
 2.74 2697.12 784.621 3016.13 1053.39 2698.11 827.938 3067.8 1279.3
 2.75 2753.56 733.786 2997.56 980.168 2762.27 777.282 3011.48 1193.53
 2.76 2837.74 685.016 2992.95 909.952 2860.67 731.755 2975.53 1110.04
 2.77 2932.15 638.272 3002.79 842.277 2899.59 691.625 2966.59 1028.88
 2.78 2974.18 595.66 3020.54 777.268 2811.64 650.75 2978.78 950.174
 2.79 2894.47 555.216 3032.06 714.087 2695.8 606.238 2976.57 873.894
 2.8 2770.24 514.849 3085.47 652.711 2622.86 561.299 2956.02 799.908
 2.81 2658.36 475.797 3207.59 595.662 2568.38 518.056 2970.15 729.31
 2.82 2544.47 435.606 3277.96 543.955 2498.43 475.497 3011.4 663.775
 2.83 2449.66 393.125 3148.86 492.586 2433.06 432.807 2977.41 601.488
 2.84 2390.61 350.355 2932.78 438.341 2391.77 390.467 2849.99 537.796
 2.85 2363.73 308.704 2766.2 383.744 2376.24 349.123 2726.64 473.031
 2.86 2362.69 268.685 2668.13 330.998 2383.42 309.216 2649.99 409.681
 2.87 2383.95 230.514 2622.66 280.949 2411.17 271.001 2616.91 349.06
 2.88 2426.58 194.388 2616.7 233.969 2459.27 234.71 2619.15 291.78
 2.89 2491.6 160.587 2643.66 190.399 2529.15 200.647 2652.49 238.345
 2.9 2581.57 129.522 2701.65 150.704 2623.68 169.246 2716.51 189.39
 2.91 2700.6 101.781 2791.99 115.546 2747.16 141.121 2813.69 145.794
 2.92 2854.52 78.189 2918.58 85.8557 2905.62 117.135 2949.01 108.776
 2.93 3051.35 59.9066 3087.84 62.9271 3107.24 98.4976 3130.03 80.0246
 2.94 3302.03 48.5618 3309.1 48.5586 3363.12 86.9147 3367.43 61.8854
 2.95 3621.6 46.4633 3595.46 45.262 3688.5 84.8151 3676.01 57.6394
 2.96 4031.01 56.9248 3965.15 56.5812 4104.47 95.7029 4076.31 71.9269
 2.97 4559.88 84.7799 4443.84 87.584 4640.87 124.718 4597.13 111.404
 2.98 5251.03 137.214 5068.13 145.64 5340.65 179.549 5279.44 185.775
 2.99 6167.8 225.14 5891.23 241.671 6267.07 271.952 6182.69 309.459
 3 7406.19 365.534 6992.25 392.222 7515.58 420.343 7394.83 504.311
 3.01 9115.55 585.45 8491.69 622.941 9233.62 654.303 9048.78 804.151
 3.02 11533.3 928.947 10577.5 974.561 11653.4 1022.41 11349.2 1262.31
 3.03 15040.1 1468.48 13548.9 1513.2 15142.3 1605.35 14614.5 1963.89
 3.04 20224.3 2319.92 17884.5 2347.6 20261.5 2534.01 19335.5 3043.72
 3.05 27846 3642.78 24318.4 3653.84 27737.1 3995.4 26217.8 4702.93
 3.06 38247.2 5541.91 33767.7 5686.95 37972.7 6140.84 36037.3 7180.87
 3.07 49720.9 7752.42 46478.5 8649.32 49581 8734.25 48740.1 10536.1
 3.08 58470 9560.82 59574.1 12117.1 58850.7 10905.3 61094.2 14070.3
 3.09 62553.8 10611.8 66362 14614.3 63551.6 12035 66027.1 16141.1
 3.1 61451.1 10989.3 63162 14944 63503.1 12203.9 60774.7 15874.7
 3.11 53778.3 10340.9 52964.5 13275.6 56951.6 11232.5 50418.7 13971.9
 3.12 42261.3 8710.28 41224.2 10724 45438.5 9312.74 39634.1 11429.9
 3.13 31766.2 6878.6 31355.3 8285.69 34198.9 7291.77 30614.9 9027.56
 3.14 24036.7 5340.69 24081.2 6337.48 25745.3 5645.34 23861.7 7069.18
 3.15 18694.7 4165.79 18946.6 4871.17 19897.8 4408.23 19002.7 5551.96
 3.16 15019.1 3281.65 15340.5 3775.01 15890.3 3485.82 15522.8 4385.16
 3.17 12460.4 2607.12 12792.1 2943.79 13108.9 2785.43 13015.6 3478.01
 3.18 10663.4 2080.71 10985.7 2300.17 11154.3 2239.83 11203.4 2760.3
 3.19 9408.86 1660.1 9720.29 1791.34 9780.39 1803.7 9905.91 2182.07
 3.2 8565.94 1317.09 8873.42 1382.36 8839.35 1447.08 9011.28 1709.15
 3.21 8063.37 1033.57 8377.65 1051 8247.84 1150.66 8457.09 1319.24
 3.22 7874.96 799.015 8208.6 784.745 7969.49 902.886 8220.32 999.505
 3.23 8016.2 609.754 8382.05 579.652 8008.86 698.977 8315.37 745.823
 3.24 8551.25 469.973 8960.21 441.325 8415.51 541.587 8800.11 564.012
 3.25 9613.39 395.403 10069.5 388.672 9300.15 444.039 9792.36 473.865
 3.26 11445.5 421.745 11936 462.335 10868.1 437.915 11502 517.936
 3.27 14466.4 621.625 14945.9 741.497 13477 588.75 14285.3 778.612
 3.28 19335.4 1132.92 19726.8 1374.18 17705.9 1024.17 18718.5 1407.83
 3.29 26787.8 2175.52 27150 2616.8 24302 1962.47 25609.1 2663.41
 3.3 36486.8 3918.27 37767.7 4807.25 33458.9 3636.91 35552.6 4879.67
 3.31 44886.3 6025.6 49727.5 7982.03 42853.8 5880.89 47096.9 8114.45
 3.32 46970.3 7583.36 56983.1 11079.8 47405.5 7773.94 54660.2 11385.8
 3.33 41823.6 7947.14 54525.1 12379.2 44152.5 8407.32 53179 12980.5
 3.34 33221.1 7254.95 45176 11583.1 35786.9 7784.39 44880.1 12437.7
 3.35 25291.1 6155.64 34965.7 9844.88 27317.3 6639.3 35298.3 10795.4
 3.36 19431 5110.51 26802.7 8103.78 20910.2 5527.46 27394.9 9030.25
 3.37 15393.8 4252.61 20909.1 6667.16 16489.2 4613.74 21568.2 7517.43
 3.38 12658.3 3573.31 16738.5 5543.83 13509.3 3893.4 17381.6 6305.35
 3.39 10841.7 3035.05 13757 4669.11 11544.3 3325.88 14351.8 5345.21
 3.4 9734.9 2607.61 11584.6 3978.29 10356.5 2876.88 12119 4576.8
 3.41 9263.93 2280.75 9972.71 3421.65 9855.26 2530.96 10440.7 3950.5
 3.42 9357.16 2071.29 8762.2 2964.19 9950.62 2296.19 9158.54 3430.46
 3.43 9542.36 1987.19 7852.06 2582 10124.4 2171.09 8177.11 2993.56
 3.44 9009.39 1927.17 7176.16 2255.86 9521.56 2066.19 7448.04 2622.03
 3.45 7941.46 1786.59 6692.71 1969.12 8351.79 1900.17 6933.3 2296.79
 3.46 7025.27 1594.1 6386.94 1711.35 7348.7 1698.73 6600.5 2003.68
 3.47 6488.05 1396.68 6277.59 1477.25 6747.47 1498.37 6455.79 1735.53
 3.48 6340.26 1213.74 6419.15 1265.84 6545.31 1313.12 6545.98 1490.45
 3.49 6616.78 1055 6918.2 1083.02 6760.63 1149.68 6967.54 1273.05
 3.5 7451.62 938.464 7969.84 950.117 7511.02 1022.06 7900.02 1101.92
 3.51 9075 909.683 9869.14 922.414 9034.04 968.449 9638.72 1027.42
 3.52 11533.1 1052.4 12755.6 1105.06 11533.1 1070.84 12470.3 1157.61
 3.53 13760.1 1390.53 15574.3 1549.86 14356.3 1405.18 15861.2 1611.97
 3.54 13803.9 1685.22 15951.8 1966.24 15279.2 1802.65 17442.1 2212.17
 3.55 12010.5 1704.53 14055.8 2012.23 13614.4 1928.45 15991.8 2462.21
 3.56 10371.8 1549.43 12284.9 1814.95 11547.4 1803.89 13782.8 2319.9
 3.57 9818.64 1393.65 11837.3 1621.91 10512.7 1636.71 12693.1 2093.81
 3.58 10390.5 1355.56 12856.6 1606.27 10652.7 1573.21 13046.8 2027.51
 3.59 11345.3 1492.97 14488.6 1868.58 11204 1669.85 13889.5 2223.99
 3.6 11257.3 1673.44 14553.3 2218.4 10834.6 1789.92 13319.5 2462.44
 3.61 10119.4 1718.87 12525.2 2300.89 9609.37 1778.92 11317.3 2446.38
 3.62 8792 1662.16 10158.8 2140.64 8345.15 1681.68 9330.23 2240.06
 3.63 7480.83 1544.64 8355.82 1901.81 7233.98 1546.41 7918.33 1982.4
 3.64 6449.45 1389.65 7183.83 1660.08 6454.04 1392.81 7079.73 1730.66
 3.65 5866.89 1233.11 6556.75 1442.38 6132.97 1246.37 6755.59 1507.39
 3.66 5731.64 1096.28 6408.64 1259.41 6291.94 1125.72 6923.73 1326.11
 3.67 6012.15 991.923 6711.15 1120.95 6951.84 1046.2 7609.94 1201.21
 3.68 6665.31 929.259 7425.91 1035.35 8171.4 1034.75 8920.3 1168.27
 3.69 7727.98 921.453 8620.9 1016.79 9720.9 1134.1 10708.6 1298.14
 3.7 9204.66 1018.37 10385.8 1131.04 10562.8 1316.44 11897.7 1579.5
 3.71 10238.8 1230.06 11824.9 1406.18 10009 1450.45 11531.5 1810
 3.72 9731.07 1393.91 11488.6 1640.73 8697.82 1467.92 10145.6 1851.03
 3.73 8325.77 1386.93 9899.53 1648.19 7494.07 1386.74 8734.74 1731.43
 3.74 7248.49 1281.07 8567.93 1511.86 6905.57 1272.11 7968.61 1556.86
 3.75 6939.55 1175.13 8117.63 1367.77 7072.67 1187.29 8064.53 1421.86
 3.76 7382.9 1138 8587.21 1309.38 7876.82 1189.39 8946.44 1410.75
 3.77 8126.77 1215.64 9531.7 1403.74 8605.75 1302.15 9898.17 1576.42
 3.78 8214.83 1361.27 9835.62 1606.42 8303.32 1435.83 9770.82 1804.44
 3.79 7243.26 1443.42 8821.77 1740.36 7105.65 1482.29 8511.96 1907.96
 3.8 5877.94 1412.14 7183.84 1715.04 5762.2 1435.8 6950.24 1857.83
 3.81 4756.84 1322.13 5778.75 1599.62 4706.1 1346.28 5670.01 1731.46
 3.82 3986.15 1222.52 4798.21 1466.99 3976.02 1250.85 4767.15 1591.93
 3.83 3480.25 1130.6 4149.85 1344.15 3485.18 1162.66 4152.37 1462.64
 3.84 3158.93 1049.78 3734.17 1236.79 3158.77 1083.88 3737.75 1347.77
 3.85 2976.62 979.983 3492.52 1144.88 2957.3 1013.96 3474.88 1246.57
 3.86 2914.21 922.759 3398.47 1069.91 2866.42 953.368 3345.38 1159.45
 3.87 2924.71 882.168 3394.51 1016.3 2869.43 905.006 3328.3 1089.87
 3.88 2895.28 854.048 3347.27 978.448 2911.28 869.855 3357.99 1038.79
 3.89 2804.91 825.563 3231.52 940.71 2944.17 843.277 3378.54 1000.03
 3.9 2715.47 796.28 3118.74 902.672 2945.25 822.699 3364.02 969.583
 3.91 2617.43 767.188 2995.58 865.168 2890.49 804.093 3285.38 941.496
 3.92 2523.06 735.466 2876.9 824.759 2781.9 782.596 3144.8 909.86
 3.93 2467.92 702.851 2803.74 783.907 2656.97 753.855 2984.83 869.636
 3.94 2459.46 671.132 2779.99 744.638 2591.14 720.526 2891.88 824.148
 3.95 2515.29 641.721 2824.47 708.202 2610.46 689.419 2896.65 781.838
 3.96 2642.36 618.219 2950.36 678.602 2705.87 663.816 2988.88 746.776
 3.97 2824.63 604.564 3144.25 660.543 2870.7 648.82 3160.22 725.023
 3.98 2996 603.158 3331.23 656.986 3018.98 647.224 3315.34 719.599
 3.99 3058.71 609.148 3398.63 662.19 3039.28 652.343 3331.65 722.237
 4 2952.25 610.347 3276.12 661.738 2890.2 649.075 3159.27 714.754
