 Energy(eV)     mag     no mag
 1 4.55529 0.0576854 4.74978 0.0600453
 1.01 4.61113 0.0609409 4.8058 0.0634874
 1.02 4.67078 0.064349 4.86565 0.0670949
 1.03 4.73432 0.0679163 4.92939 0.0708751
 1.04 4.80182 0.0716495 4.99711 0.0748357
 1.05 4.87336 0.0755558 5.06888 0.0789846
 1.06 4.94904 0.0796428 5.1448 0.0833303
 1.07 5.02894 0.0839183 5.22497 0.0878817
 1.08 5.11318 0.0883906 5.30948 0.092648
 1.09 5.20187 0.0930683 5.39847 0.097639
 1.1 5.29512 0.0979605 5.49204 0.102865
 1.11 5.39308 0.103077 5.59033 0.108336
 1.12 5.49588 0.108427 5.69348 0.114065
 1.13 5.60366 0.114022 5.80165 0.120062
 1.14 5.71659 0.119872 5.91498 0.126341
 1.15 5.83484 0.12599 6.03366 0.132914
 1.16 5.95859 0.132387 6.15786 0.139796
 1.17 6.08802 0.139076 6.28778 0.147001
 1.18 6.22335 0.146072 6.42362 0.154545
 1.19 6.36479 0.153388 6.5656 0.162443
 1.2 6.51258 0.161039 6.71397 0.170713
 1.21 6.66695 0.169042 6.86895 0.179374
 1.22 6.82817 0.177412 7.03083 0.188444
 1.23 6.99652 0.186169 7.19987 0.197943
 1.24 7.1723 0.195331 7.37638 0.207894
 1.25 7.35581 0.204917 7.56067 0.218319
 1.26 7.54739 0.21495 7.75307 0.229242
 1.27 7.7474 0.22545 7.95396 0.240688
 1.28 7.95621 0.236442 8.16369 0.252685
 1.29 8.17422 0.247951 8.3827 0.265261
 1.3 8.40187 0.260003 8.61139 0.278448
 1.31 8.6396 0.272627 8.85023 0.292276
 1.32 8.88791 0.285853 9.09972 0.306782
 1.33 9.1473 0.299712 9.36037 0.322001
 1.34 9.41834 0.314239 9.63274 0.337972
 1.35 9.70161 0.32947 9.91741 0.354738
 1.36 9.99774 0.345444 10.215 0.372344
 1.37 10.3074 0.362201 10.5263 0.390835
 1.38 10.6313 0.379786 10.8519 0.410264
 1.39 10.9702 0.398246 11.1926 0.430684
 1.4 11.325 0.417631 11.5493 0.452153
 1.41 11.6965 0.437995 11.9228 0.474734
 1.42 12.0857 0.459396 12.3141 0.498494
 1.43 12.4935 0.481895 12.7242 0.523503
 1.44 12.9212 0.505559 13.1543 0.54984
 1.45 13.3698 0.530459 13.6055 0.577586
 1.46 13.8406 0.556672 14.079 0.60683
 1.47 14.335 0.584282 14.5763 0.637669
 1.48 14.8544 0.613376 15.0988 0.670206
 1.49 15.4005 0.644051 15.6482 0.704552
 1.5 15.9749 0.676411 16.2261 0.740829
 1.51 16.5795 0.710569 16.8345 0.779166
 1.52 17.2163 0.746647 17.4753 0.819706
 1.53 17.8876 0.784775 18.1507 0.862602
 1.54 18.5956 0.825099 18.8632 0.908022
 1.55 19.3429 0.867773 19.6154 0.956145
 1.56 20.1324 0.912968 20.41 1.00717
 1.57 20.9671 0.960868 21.2502 1.06132
 1.58 21.8503 1.01168 22.1392 1.11881
 1.59 22.7857 1.06561 23.0809 1.17992
 1.6 23.7774 1.12292 24.0793 1.24493
 1.61 24.8297 1.18386 25.1387 1.31414
 1.62 25.9474 1.24873 26.264 1.38789
 1.63 27.1359 1.31785 27.4607 1.46656
 1.64 28.401 1.39158 28.7345 1.55057
 1.65 29.7492 1.4703 30.0921 1.64038
 1.66 31.1877 1.55444 31.5407 1.73648
 1.67 32.7246 1.6445 33.0883 1.83945
 1.68 34.3685 1.741 34.7439 1.94991
 1.69 36.1296 1.84455 36.5174 2.06856
 1.7 38.0187 1.9558 38.4199 2.19618
 1.71 40.0482 2.0755 40.4638 2.33365
 1.72 42.2321 2.20449 42.6633 2.48194
 1.73 44.5861 2.3437 45.0339 2.64217
 1.74 47.1276 2.49422 47.5935 2.81558
 1.75 49.8768 2.65722 50.3621 3.00358
 1.76 52.8564 2.83409 53.3627 3.20779
 1.77 56.0922 3.02638 56.6212 3.43003
 1.78 59.6138 3.23586 60.1674 3.6724
 1.79 63.4553 3.46458 64.0354 3.93729
 1.8 67.6557 3.71488 68.2646 4.22748
 1.81 72.2602 3.98948 72.9003 4.54617
 1.82 77.3216 4.29154 77.9954 4.89706
 1.83 82.901 4.62472 83.6114 5.2845
 1.84 89.0704 4.99333 89.8204 5.71357
 1.85 95.9146 5.40245 96.7074 6.19025
 1.86 103.534 5.85807 104.373 6.72163
 1.87 112.048 6.36735 112.937 7.31615
 1.88 121.601 6.93885 122.543 7.98394
 1.89 132.365 7.58289 133.365 8.73719
 1.9 144.551 8.31201 145.613 9.59075
 1.91 158.417 9.14156 159.544 10.5628
 1.92 174.283 10.0905 175.477 11.6756
 1.93 192.546 11.1823 193.808 12.9573
 1.94 213.706 12.4467 215.035 14.4428
 1.95 238.402 13.9214 239.793 16.1768
 1.96 267.455 15.6546 268.895 18.2165
 1.97 301.937 17.7093 303.403 20.6366
 1.98 343.265 20.1685 344.717 23.5355
 1.99 393.35 23.1436 394.717 27.0451
 2 454.801 26.7862 455.966 31.3454
 2.01 531.265 31.3069 532.028 36.6861
 2.02 627.946 37.0045 627.967 43.4215
 2.03 752.453 44.3126 751.143 52.0661
 2.04 916.227 53.8776 912.543 63.386
 2.05 1136.99 66.6896 1129.04 78.5553
 2.06 1443.11 84.3131 1427.39 99.4286
 2.07 1881.42 109.294 1851.3 129.025
 2.08 2530.91 145.871 2474.17 172.383
 2.09 3522.61 201.097 3420.14 237.947
 2.1 5045.2 285.81 4887.69 339.002
 2.11 7245.47 411.386 7109.74 490.417
 2.12 9893.74 567.206 9957.57 680.691
 2.13 11726.3 667.855 11945.5 804.895
 2.14 11003.6 607.95 11137.4 733.428
 2.15 8581.31 454.766 8619.23 548.386
 2.16 6387.91 325.591 6425.87 392.541
 2.17 4915.93 247.026 4971.7 297.844
 2.18 3830.87 195.978 3858.16 236.145
 2.19 2940.27 154.399 2919.44 185.659
 2.2 2240.72 120.894 2201.06 145.065
 2.21 1714.89 95.1004 1684.25 114.104
 2.22 1337.11 75.8235 1320.44 91.1126
 2.23 1068.69 61.5339 1061.56 74.0965
 2.24 874.216 50.8224 872.452 61.3319
 2.25 729.318 42.6426 730.402 51.5699
 2.26 618.454 36.2734 621.002 43.9567
 2.27 531.659 31.2233 534.918 37.911
 2.28 462.369 27.1538 465.928 33.0322
 2.29 406.126 23.8269 409.76 29.0383
 2.3 359.817 21.0722 363.402 25.7272
 2.31 321.212 18.7653 324.682 22.9511
 2.32 288.677 16.8139 292.001 20.6001
 2.33 260.993 15.1481 264.157 18.591
 2.34 237.234 13.7145 240.235 16.86
 2.35 216.688 12.4714 219.529 15.3577
 2.36 198.796 11.3864 201.485 14.045
 2.37 183.118 10.4334 185.662 12.8909
 2.38 169.301 9.59171 171.709 11.8705
 2.39 157.061 8.84434 159.342 10.9637
 2.4 146.165 8.17755 148.328 10.1538
 2.41 136.424 7.58 138.478 9.42724
 2.42 127.68 7.04225 129.631 8.77278
 2.43 119.801 6.55645 121.658 8.18094
 2.44 112.677 6.11596 114.446 7.64377
 2.45 106.215 5.71522 107.902 7.15456
 2.46 100.337 5.34944 101.947 6.70758
 2.47 94.974 5.01459 96.5134 6.29794
 2.48 90.0692 4.70715 91.5421 5.92144
 2.49 85.5726 4.42413 86.9832 5.57445
 2.5 81.4412 4.1629 82.7935 5.25383
 2.51 77.6376 3.92121 78.9351 4.95685
 2.52 74.1293 3.69707 75.3754 4.6811
 2.53 70.8879 3.48873 72.0855 4.4245
 2.54 67.8883 3.29468 69.0402 4.18519
 2.55 65.1087 3.11356 66.2174 3.96155
 2.56 62.5296 2.94418 63.5974 3.75213
 2.57 60.134 2.78547 61.163 3.55564
 2.58 57.9066 2.63649 58.8989 3.37095
 2.59 55.8342 2.4964 56.7915 3.19703
 2.6 53.9047 2.36444 54.8287 3.03297
 2.61 52.1076 2.23994 52.9997 2.87794
 2.62 50.4334 2.12228 51.2952 2.73121
 2.63 48.8738 2.01091 49.7065 2.59211
 2.64 47.4213 1.90534 48.2261 2.46003
 2.65 46.0694 1.80511 46.8475 2.33443
 2.66 44.8123 1.70981 45.5646 2.2148
 2.67 43.6448 1.61908 44.3724 2.10069
 2.68 42.5627 1.53257 43.2663 1.9917
 2.69 41.562 1.44997 42.2426 1.88744
 2.7 40.6395 1.371 41.2979 1.78757
 2.71 39.7928 1.2954 40.4296 1.69177
 2.72 39.0197 1.22294 39.6357 1.59976
 2.73 38.3189 1.15339 38.9147 1.51125
 2.74 37.6896 1.08655 38.266 1.42601
 2.75 37.132 1.02225 37.6897 1.34382
 2.76 36.6473 0.9603 37.1872 1.26446
 2.77 36.2381 0.900559 36.7614 1.18775
 2.78 35.9095 0.842885 36.4179 1.11351
 2.79 35.6698 0.78716 36.1659 1.04162
 2.8 35.5307 0.733302 36.0183 0.97199
 2.81 35.4963 0.681283 35.9787 0.904655
 2.82 35.5255 0.631079 35.9987 0.839606
 2.83 35.5458 0.582454 35.9974 0.776419
 2.84 35.5898 0.535089 36.0117 0.714591
 2.85 35.7438 0.488961 36.1366 0.654141
 2.86 36.0399 0.444148 36.4069 0.595234
 2.87 36.4842 0.400682 36.8279 0.537939
 2.88 37.0843 0.358577 37.4059 0.482286
 2.89 37.8538 0.31786 38.154 0.42832
 2.9 38.8137 0.278587 39.0923 0.376124
 2.91 39.9915 0.240857 40.2484 0.325837
 2.92 41.4232 0.204823 41.6576 0.277672
 2.93 43.1546 0.170707 43.3656 0.23194
 2.94 45.2445 0.138832 45.4307 0.189085
 2.95 47.7688 0.109652 47.9284 0.149733
 2.96 50.8263 0.083803 50.957 0.114761
 2.97 54.5478 0.0621836 54.6464 0.0854069
 2.98 59.1081 0.046066 59.1705 0.0634211
 2.99 64.7457 0.0372732 64.7664 0.0513146
 3 71.7915 0.0384546 71.763 0.0527384
