 Energy(eV)     Sca_L     Sca_R
 442.801 1228.81 384.007
 441.225 1309.2 402.526
 439.66 1397.13 422.301
 438.107 1493.56 443.437
 436.564 1599.64 466.046
 435.032 1716.68 490.25
 433.511 1846.27 516.177
 432 1990.26 543.962
 430.5 2150.89 573.748
 429.011 2330.87 605.679
 427.532 2533.46 639.897
 426.062 2762.69 676.54
 424.603 3023.56 715.732
 423.154 3322.3 757.574
 421.715 3666.82 802.141
 420.285 4067.26 849.476
 418.865 4536.7 899.619
 417.455 5092.26 952.685
 416.054 5756.39 1009.08
 414.663 6558.36 1070.09
 413.28 7535.18 1139.12
 411.907 8729.69 1224.69
 410.544 10179 1346.34
 409.189 11878.2 1544.89
 407.843 13697.9 1891.63
 406.505 15280.7 2468.21
 405.177 16100.8 3271.32
 403.857 15849.5 4106.86
 402.546 14707.2 4735.13
 401.243 13317.6 5232.93
 399.949 12483.1 5808.95
 398.663 12326.9 6390.7
 397.385 12517.3 6851.31
 396.115 12756.3 7132.74
 394.854 12853.4 7208.39
 393.6 12713.7 7068.64
 392.355 12343.5 6725.15
 391.117 11855.8 6212.38
 389.887 11449.1 5578.89
 388.665 11325.7 4870.19
 387.45 11543.3 4123.13
 386.243 11888.5 3412.5
 385.044 11975.5 2845.37
 383.852 11536.4 2419.77
 382.667 10447.3 2085.01
 381.49 8973.65 1802.28
 380.319 7502.12 1547.13
 379.156 6201.39 1320.2
 378 5113.71 1142.44
 376.851 4291.69 1053.24
 375.71 3857.69 1103.66
 374.574 3861.23 1275.98
 373.446 3976.09 1394.09
 372.325 3851.9 1345.82
 371.21 3574.63 1211.11
 370.102 3418.07 1096.75
 369 3609.34 1059.67
 367.905 4050.69 1056.29
 366.817 4292.19 1003.99
 365.735 4129.23 911.183
 364.659 3751.4 811.253
 363.59 3347.2 716.938
 362.527 2986.91 629.877
 361.47 2680.37 551.159
 360.419 2413.35 484.469
 359.374 2169.32 429.497
 358.336 1946.29 383.102
 357.303 1752.89 346.079
 356.276 1606.91 324.147
 355.255 1519.39 319.01
 354.24 1444.61 311.218
 353.231 1335.17 284.889
 352.228 1210.1 246.758
 351.23 1105.39 204.631
 350.238 1053.92 165.431
 349.251 1079.24 147.001
 348.27 1182.94 165.724
 347.295 1313.31 209.172
 346.324 1421.1 262.034
 345.36 1516 318.326
 344.4 1571.48 353.3
 343.446 1566.85 357.033
 342.498 1519.73 341.097
 341.554 1443.17 315.714
 340.616 1355.92 288.479
 339.683 1277.49 264.036
 338.754 1216.83 244.876
 337.831 1166.84 229.463
 336.913 1115.69 214.806
 336 1061.51 200.695
 335.092 1007.96 187.621
 334.189 958.517 175.937
 333.291 915.428 165.979
 332.397 877.907 157.47
 331.508 842.739 149.509
 330.624 809.172 141.913
 329.745 777.354 134.728
 328.87 746.978 127.876
 328 718.184 121.409
 327.135 691.096 115.368
 326.274 665.668 109.74
