 Energy(eV)     Sca_L     Sca_R
 442.801 87508 4442.73
 441.225 93135.7 4676.65
 439.66 98596.2 5180
 438.107 103147 6090.39
 436.564 105761 7511.32
 435.032 105495 9418.45
 433.511 102112 11598.5
 432 96411.4 13719.6
 430.5 89810.7 15502.3
 429.011 83577.7 16831.6
 427.532 78413.3 17737.8
 426.062 74503 18318.1
 424.603 71743.9 18675.9
 423.154 69930.8 18895.9
 421.715 68856.2 19041.1
 420.285 68350.2 19157.6
 418.865 68293.2 19281.9
 417.455 68617.6 19444.8
 416.054 69307 19672.6
 414.663 70387.5 19981.9
 413.28 71901.9 20369.4
 411.907 73856.5 20798.6
 410.544 76143.8 21193.1
 409.189 78461 21438.9
 407.843 80245.4 21394.8
 406.505 80671.4 20907.8
 405.177 78876.5 19869.5
 403.857 74691.3 18353.9
 402.546 69297 16692
 401.243 64177.5 15204.2
 399.949 59697.9 13949.2
 398.663 55527.4 12860.2
 397.385 51387.2 11899.4
 396.115 47174.9 11077.4
 394.854 42897 10432.7
 393.6 38670.7 10008.8
 392.355 34790.6 9833.26
 391.117 31766.2 9890.8
 389.887 30060.9 10063.4
 388.665 29336.6 10136.1
 387.45 28452 10031.7
 386.243 26938.7 9900.21
 385.044 25550.7 9851.88
 383.852 25549.1 9778.94
 382.667 27819.9 9471.55
 381.49 32018.6 8925.04
 380.319 36563.4 8266.82
 379.156 40596.2 7570.82
 378 44366.4 6968.84
 376.851 47406.4 6459.99
 375.71 49004.2 5904.08
 374.574 49171.8 5206.25
 373.446 48263.6 4379.92
 372.325 46528.1 3558.66
 371.21 44179.6 2934.64
 370.102 41541.8 2574.44
 369 38914.7 2410.8
 367.905 36469.9 2371.35
 366.817 34307.1 2420.16
 365.735 32516.2 2520.75
 364.659 31103.3 2579.09
 363.59 29841.8 2493.66
 362.527 28473.9 2291.08
 361.47 26964.7 2062.98
 360.419 25380.2 1855.95
 359.374 23761.5 1675.63
 358.336 22119.3 1513.16
 357.303 20466.6 1354.74
 356.276 18877.5 1182.43
 355.255 17547.4 987.275
 354.24 16720.6 818.473
 353.231 16444.2 790.912
 352.228 16729 941.512
 351.23 17703 1210.54
 350.238 18870.1 1489.13
 349.251 19549.7 1659.24
 348.27 19669.8 1662.95
 347.295 19489.6 1553.37
 346.324 19283 1422.6
 345.36 19152.4 1310.54
 344.4 18919.3 1207.99
 343.446 18433.2 1115.92
 342.498 17778.7 1039.62
 341.554 17132.1 976.407
 340.616 16693.5 922.716
 339.683 16534.7 879.327
 338.754 16456.2 853.565
 337.831 16244.5 834.816
 336.913 15870.7 811.354
 336 15406.2 783.275
 335.092 14922.6 754.167
 334.189 14468.3 727.06
 333.291 14061.2 702.42
 332.397 13679.9 678.453
 331.508 13305.6 654.808
 330.624 12943.4 631.998
 329.745 12592.2 610.066
 328.87 12250.1 589.135
 328 11919.3 569.265
 327.135 11600.8 550.393
 326.274 11295.1 532.445
