 Energy(eV)     Sca_L     Sca_R
 495.937 267.339 32.8064
 493.961 277.545 33.3936
 492.001 288.243 33.9998
 490.056 299.465 34.6259
 488.127 311.245 35.2734
 486.212 323.619 35.9434
 484.313 336.626 36.6375
 482.429 350.309 37.3573
 480.559 364.715 38.1044
 478.703 379.892 38.8808
 476.862 395.897 39.6885
 475.035 412.789 40.5297
 473.222 430.633 41.4067
 471.423 449.501 42.3223
 469.637 469.471 43.2793
 467.865 490.628 44.281
 466.106 513.068 45.3307
 464.36 536.894 46.4324
 462.627 562.221 47.5903
 460.908 589.176 48.8091
 459.201 617.901 50.0941
 457.506 648.552 51.451
 455.824 681.304 52.8865
 454.154 716.352 54.4077
 452.497 753.915 56.023
 450.851 794.238 57.7415
 449.218 837.598 59.5737
 447.596 884.307 61.5315
 445.986 934.722 63.6286
 444.388 989.245 65.8806
 442.801 1048.34 68.3055
 441.225 1112.53 70.924
 439.66 1182.43 73.7606
 438.107 1258.75 76.8437
 436.564 1342.3 80.207
 435.032 1434.05 83.8905
 433.511 1535.13 87.9422
 432 1646.86 92.4201
 430.5 1770.85 97.3948
 429.011 1909 102.953
 427.532 2063.62 109.204
 426.062 2237.51 116.284
 424.603 2434.13 124.366
 423.154 2657.77 133.675
 421.715 2913.79 144.507
 420.285 3208.98 157.252
 418.865 3552.02 172.44
 417.455 3954.09 190.796
 416.054 4429.66 213.329
 414.663 4997.46 241.45
 413.28 5681.34 277.131
 411.907 6510.22 323.056
 410.544 7514.41 382.561
 409.189 8711.2 458.714
 407.843 10062.8 550.779
 406.505 11380.7 645.745
 405.177 12188.4 711.588
 403.857 11763.4 729.603
 402.546 9881.65 753.697
 401.243 7712.35 825.401
 399.949 6554.93 918.073
 398.663 6591.2 1026.61
 397.385 7556.21 1173.34
 396.115 9262.37 1386.64
 394.854 11633.1 1693.54
 393.6 14602.8 2112.13
 392.355 17962.9 2627.45
 391.117 21185.7 3149.26
 389.887 23402 3507.6
 388.665 23781.7 3593.83
 387.45 22265.4 3463.67
 386.243 19784.5 3142.99
 385.044 17375.6 2662.5
 383.852 15514.9 2120.32
 382.667 13801.5 1628.66
 381.49 11794.4 1252.08
 380.319 9692.72 985.155
 379.156 7761.71 809.999
 378 6146.96 719.186
 376.851 4979 706.81
 375.71 4401.64 744.697
 374.574 4403.88 760.808
 373.446 4676.91 689.46
 372.325 4950.05 560.165
 371.21 5155.86 460.462
 370.102 5116.27 418.815
 369 4897.93 407.617
 367.905 4866.97 429.006
 366.817 5048.41 462.863
 365.735 5202.74 441.212
 364.659 5215.71 358.123
 363.59 4966.26 278.57
 362.527 4525.82 230.745
 361.47 4030.8 200.35
 360.419 3563.21 176.276
 359.374 3150.46 155.671
 358.336 2791.27 137.748
 357.303 2476.51 122.018
 356.276 2196.95 108.068
 355.255 1945.38 95.5553
 354.24 1717.88 84.1918
