 Energy(eV)     Sca_L     Sca_R
 495.937 4.22971 2.61422
 493.961 4.3827 2.6971
 492.001 4.54245 2.78325
 490.056 4.70934 2.87286
 488.127 4.88378 2.96612
 486.212 5.06622 3.06321
 484.313 5.25712 3.16435
 482.429 5.45698 3.26976
 480.559 5.66635 3.37969
 478.703 5.88581 3.49438
 476.862 6.11599 3.61413
 475.035 6.35757 3.73922
 473.222 6.61128 3.86997
 471.423 6.87791 4.00674
 469.637 7.15832 4.14989
 467.865 7.45343 4.29982
 466.106 7.76426 4.45697
 464.36 8.0919 4.6218
 462.627 8.43754 4.79481
 460.908 8.80248 4.97656
 459.201 9.18813 5.16765
 457.506 9.59605 5.36871
 455.824 10.0279 5.58046
 454.154 10.4856 5.80366
 452.497 10.9712 6.03915
 450.851 11.4868 6.28784
 449.218 12.0351 6.55075
 447.596 12.6187 6.82897
 445.986 13.2406 7.1237
 444.388 13.9043 7.43629
 442.801 14.6134 7.7682
 441.225 15.3722 8.12104
 439.66 16.1853 8.49662
 438.107 17.0579 8.89692
 436.564 17.9959 9.32414
 435.032 19.0059 9.78076
 433.511 20.0955 10.2695
 432 21.273 10.7935
 430.5 22.5481 11.356
 429.011 23.9319 11.9611
 427.532 25.437 12.6131
 426.062 27.078 13.3168
 424.603 28.8715 14.0778
 423.154 30.8373 14.9025
 421.715 32.9981 15.7979
 420.285 35.3808 16.7722
 418.865 38.0169 17.8347
 417.455 40.9443 18.9961
 416.054 44.2079 20.2685
 414.663 47.8624 21.6658
 413.28 51.9741 23.2041
 411.907 56.6246 24.9015
 410.544 61.9155 26.7789
 409.189 67.9746 28.86
 407.843 74.9652 31.1714
 406.505 83.0983 33.743
 405.177 92.6515 36.6083
 403.857 103.994 39.8059
 402.546 117.617 43.3863
 401.243 134.157 47.4379
 399.949 154.327 52.1818
 398.663 178.43 58.2984
 397.385 204.472 67.8531
 396.115 224.891 85.3022
 394.854 234.071 112.797
 393.6 247.729 143.16
 392.355 282.55 172.368
 391.117 341.193 204.316
 389.887 425.72 243.9
 388.665 543.445 295.561
 387.45 707.564 363.837
 386.243 936.32 452.617
 385.044 1244.86 561.16
 383.852 1610.2 675.691
 382.667 1894.69 762.371
 381.49 1885.11 769.709
 380.319 1597.63 673.342
 379.156 1236.18 531.625
 378 901.858 392.024
 376.851 630.321 274.001
 375.71 438.01 191.354
 374.574 320.485 146.892
 373.446 274.198 143.048
 372.325 303.082 184.591
 371.21 386.254 254.871
 370.102 440.838 293.206
 369 419.04 269.024
 367.905 361.505 216.766
 366.817 305.283 169.049
 365.735 265.928 134.691
 364.659 244.872 110.694
 363.59 225.476 93.2767
 362.527 200.638 80.7368
 361.47 174.916 70.5446
 360.419 150.713 61.0012
 359.374 129.416 52.4535
 358.336 111.365 45.1564
 357.303 96.187 38.9643
 356.276 83.3171 33.6632
 355.255 72.2488 29.0702
 354.24 62.6022 25.0485
