 Energy(eV)     Sca_L     Sca_R
 442.801 16.0031 12.2248
 441.225 16.9085 12.881
 439.66 17.8852 13.5865
 438.107 18.9407 14.3466
 436.564 20.0835 15.1669
 435.032 21.3235 16.0538
 433.511 22.6719 17.0145
 432 24.1413 18.0576
 430.5 25.7467 19.1924
 429.011 27.505 20.43
 427.532 29.4362 21.7829
 426.062 31.5635 23.2658
 424.603 33.9141 24.8957
 423.154 36.5201 26.6923
 421.715 39.4199 28.6787
 420.285 42.6589 30.8825
 418.865 46.2921 33.3358
 417.455 50.386 36.0772
 416.054 55.0218 39.1526
 414.663 60.2999 42.6174
 413.28 66.3448 46.5385
 411.907 73.3132 50.9973
 410.544 81.4047 56.0935
 409.189 90.8762 61.9499
 407.843 102.064 68.7184
 406.505 115.414 76.5887
 405.177 131.53 85.7989
 403.857 151.24 96.6529
 402.546 175.697 109.55
 401.243 206.506 125.055
 399.949 245.813 144.12
 398.663 295.93 168.831
 397.385 357.048 204.805
 396.115 421.611 265.468
 394.854 480.84 365.114
 393.6 557.513 496.738
 392.355 686.841 653.752
 391.117 881.871 847.17
 389.887 1132.75 1077.22
 388.665 1376.1 1291.54
 387.45 1467.54 1362.72
 386.243 1310.4 1207.71
 385.044 1031.74 943.29
 383.852 832.311 746.491
 382.667 787.601 679.044
 381.49 812.541 666.137
 380.319 766.601 596.487
 379.156 645.909 476.406
 378 509.793 361.137
 376.851 389.796 271.586
 375.71 296.774 206.333
 374.574 230.447 161.231
 373.446 190.178 135.667
 372.325 178.988 132.714
 371.21 191.211 147.637
 370.102 196.527 154.855
 369 179.648 142.193
 367.905 155.879 122.853
 366.817 139.411 108.089
 365.735 134.869 100.805
 364.659 134.034 95.2475
 363.59 125.991 86.2235
 362.527 111.988 75.5292
 361.47 97.4525 65.5324
 360.419 84.8212 56.9969
 359.374 74.5718 50.0449
 358.336 66.2673 44.4486
 357.303 58.88 39.5022
 356.276 52.0708 34.9408
 355.255 46.307 31.1159
 354.24 42.2737 28.5644
 353.231 40.0146 27.3086
 352.228 37.6444 25.8375
 351.23 34.1026 23.26
 350.238 30.621 20.4085
 349.251 28.8357 18.431
 348.27 30.2871 18.754
 347.295 35.1614 21.9647
 346.324 40.7686 26.1869
 345.36 45.8949 30.5101
 344.4 50.6657 34.7944
 343.446 52.4747 36.6391
 342.498 50.9034 35.6323
 341.554 47.5142 33.1051
 340.616 43.5542 30.1355
 339.683 39.9059 27.4057
 338.754 36.969 25.1998
 337.831 34.6549 23.4683
 336.913 32.5756 21.9307
 336 30.566 20.4729
 335.092 28.6747 19.1252
 334.189 26.9742 17.9262
 333.291 25.5182 16.906
 332.397 24.2776 16.0415
 331.508 23.1376 15.2482
 330.624 22.0603 14.4985
 329.745 21.0511 13.7966
 328.87 20.0993 13.1345
 328 19.2079 12.5147
 327.135 18.3795 11.9394
 326.274 17.6109 11.4064
