 Energy(eV)     Sca_L     Sca_R
 495.937 196436 51222.1
 493.961 189967 54314
 492.001 182507 56882.9
 490.056 174460 58929.4
 488.127 166203 60487.6
 486.212 158062 61614.5
 484.313 150300 62379.5
 482.429 143114 62855.5
 480.559 136648 63113.4
 478.703 130997 63217.7
 476.862 126222 63225
 475.035 122362 63183.8
 473.222 119436 63134.6
 471.423 117460 63111.3
 469.637 116445 63142.3
 467.865 116404 63251.9
 466.106 117357 63461.8
 464.36 119330 63792
 462.627 122358 64261.9
 460.908 126481 64890.4
 459.201 131738 65696
 457.506 138157 66694.1
 455.824 145727 67893.1
 454.154 154368 69286
 452.497 163874 70836.5
 450.851 173850 72460.5
 449.218 183647 74003.2
 447.596 192348 75226.7
 445.986 198865 75824.8
 444.388 202187 75487.6
 442.801 201720 74007.6
 441.225 197536 71377.8
 439.66 190334 67812.6
 438.107 181131 63672.5
 436.564 170902 59346.2
 435.032 160355 55159.4
 433.511 149903 51339
 432 139728 48023.3
 430.5 129877 45290.1
 429.011 120340 43190
 427.532 111099 41774.2
 426.062 102180 41119.6
 424.603 93709.2 41348.2
 423.154 86010.1 42632.7
 421.715 79739.8 45154.8
 420.285 75953.9 48943.8
 418.865 75750.5 53533.5
 417.455 79133.8 57686.7
 416.054 84086.6 59904.6
 414.663 87873.2 59626.2
 413.28 89224.8 57536.3
 411.907 88465.7 54740.4
 410.544 86471.2 52073.6
 409.189 84095.9 49953.2
 407.843 82075.3 48481.5
 406.505 81045.3 47566.8
 405.177 81531.8 46997
 403.857 83867.2 46479.2
 402.546 88048.7 45688.4
 401.243 93634.4 44347.8
 399.949 99810.4 42321.2
 398.663 105645 39657
 397.385 110364 36551.8
 396.115 113501 33265
 394.854 114935 30039.4
 393.6 114850 27051.5
 392.355 113606 24394.8
 391.117 111584 22091.8
 389.887 109093 20121.1
 388.665 106352 18440.8
 387.45 103501 17005
 386.243 100628 15771.1
 385.044 97785.6 14702.9
 383.852 95001.5 13770.3
 382.667 92290.2 12949.5
 381.49 89656.7 12221.2
 380.319 87100.6 11570.5
 379.156 84617.3 10985.1
 378 82200.2 10455.5
 376.851 79840.7 9974.03
 375.71 77529.2 9534.5
 374.574 75254.6 9131.88
 373.446 73005 8762.03
 372.325 70767.1 8421.47
 371.21 68526.5 8107.04
 370.102 66268.6 7815.62
 369 63980.4 7543.63
 367.905 61657.2 7286.35
 366.817 59319.1 7037.24
 365.735 57052.8 6789.02
 364.659 55086.4 6542.78
 363.59 53786.9 6328.18
 362.527 53227.4 6157.32
 361.47 52902.5 5889.43
 360.419 52616.8 5482.18
 359.374 53499.9 5085.24
 358.336 57089.4 4623.02
 357.303 61796.4 4046.26
 356.276 64505.8 3744.72
 355.255 64698.8 3772.21
 354.24 63409.1 3828.57
