 Energy(eV)     Sca_U     Sca_D
 495.937 21.6332 5533.25
 493.961 22.2697 5694.96
 492.001 22.9358 5862.25
 490.056 23.6333 6035.32
 488.127 24.3641 6214.44
 486.212 25.1302 6399.84
 484.313 25.9339 6591.79
 482.429 26.7773 6790.58
 480.559 27.6629 6996.49
 478.703 28.5935 7209.84
 476.862 29.5719 7430.94
 475.035 30.601 7660.13
 473.222 31.6842 7897.78
 471.423 32.825 8144.26
 469.637 34.0271 8399.97
 467.865 35.2947 8665.32
 466.106 36.632 8940.75
 464.36 38.0438 9226.74
 462.627 39.5351 9523.77
 460.908 41.1114 9832.36
 459.201 42.7787 10153
 457.506 44.5433 10486.4
 455.824 46.412 10833.1
 454.154 48.3924 11193.7
 452.497 50.4925 11568.9
 450.851 52.7211 11959.5
 449.218 55.0876 12366.2
 447.596 57.6024 12789.8
 445.986 60.2767 13231.3
 444.388 63.1227 13691.4
 442.801 66.1536 14171.2
 441.225 69.3837 14671.6
 439.66 72.829 15193.9
 438.107 76.5064 15739.2
 436.564 80.4348 16308.6
 435.032 84.6346 16903.6
 433.511 89.1282 17525.5
 432 93.94 18175.9
 430.5 99.0969 18856.2
 429.011 104.628 19568.4
 427.532 110.566 20314.1
 426.062 116.946 21095.3
 424.603 123.807 21914.3
 423.154 131.191 22773.2
 421.715 139.146 23674.4
 420.285 147.722 24620.7
 418.865 156.977 25615
 417.455 166.973 26660.2
 416.054 177.778 27759.8
 414.663 189.467 28917.6
 413.28 202.125 30137.6
 411.907 215.842 31424.3
 410.544 230.719 32782.9
 409.189 246.866 34218.9
 407.843 264.407 35738.7
 406.505 283.474 37349.6
 405.177 304.216 39060
 403.857 326.794 40879.4
 402.546 351.39 42819.3
 401.243 378.199 44892.8
 399.949 407.442 47115.9
 398.663 439.361 49507.3
 397.385 474.229 52089.9
 396.115 512.35 54890.9
 394.854 554.07 57943.4
 393.6 599.786 61286.8
 392.355 649.954 64967.9
 391.117 705.108 69040.9
 389.887 765.868 73566.2
 388.665 832.95 78606.5
 387.45 907.157 84218.4
 386.243 989.325 90435.7
 385.044 1080.19 97241
 383.852 1180.11 104523
 382.667 1288.62 112020
 381.49 1403.72 119270
 380.319 1521.31 125606
 379.156 1634.9 130240
 378 1736.49 132484
 376.851 1818.57 132016
 375.71 1876.4 129048
 374.574 1909.31 124259
 373.446 1920.21 118543
 372.325 1913.99 112734
 371.21 1895.85 107442
 370.102 1870.42 103025
 369 1841.49 99629.2
 367.905 1812.14 97265.3
 366.817 1785.03 95862.4
 365.735 1762.75 95314
 364.659 1748.01 95506.2
 363.59 1743.82 96336.5
 362.527 1753.69 97727.2
 361.47 1781.66 99635.6
 360.419 1832.23 102061
 359.374 1910.01 105042
 358.336 2018.57 108644
 357.303 2157.85 112888
 356.276 2319.01 117610
 355.255 2476.49 122167
 354.24 2580.83 125103
 353.231 2565.15 124323
 352.228 2383.43 118673
 351.23 2062.95 109642
 350.238 1690.7 99787
 349.251 1341.81 90415.8
 348.27 1049.66 81779
 347.295 818.816 73808.4
 346.324 641.703 66375
 345.36 507.824 59353.9
 344.4 407.388 52673.8
 343.446 332.031 46394.6
 342.498 274.531 40841.9
 341.554 229.117 36828.3
 340.616 191.948 35869.1
 339.683 159.934 39337.8
 338.754 133.535 45231.3
 337.831 122.826 48670.5
 336.913 139.711 48635.3
 336 189.013 48028.3
 335.092 265.021 49999
 334.189 345.229 55874.9
 333.291 396.227 63503
 332.397 398.693 68621.9
 331.508 362.619 69305.5
 330.624 311.263 66756.8
 329.745 260.776 62769.7
 328.87 217.31 58440.7
 328 181.703 54245.3
 327.135 152.97 50339.8
 326.274 129.792 46745.6
 325.418 110.97 43433.4
 324.566 95.5248 40357.4
 323.718 82.6779 37468.1
 322.875 71.7829 34717.6
 322.037 62.2066 32067
 321.202 53.1159 29508
 320.372 43.2776 27116.3
 319.547 32.0599 25075.4
 318.725 22.1378 23560.5
 317.908 17.6238 23014.7
 317.095 20.5428 23958.3
 316.286 27.9456 25350.8
 315.481 33.4764 25756.4
 314.681 34.8352 25260.2
 313.884 33.8025 24420.7
 313.091 32.4973 23689.8
 312.303 31.123 23087.5
 311.518 29.1554 22308.8
 310.737 26.8585 21384.5
 309.96 24.4557 20581
