 Energy(eV)     Sca_U     Sca_D
 495.937 89.3237 1435.72
 493.961 91.0663 1473.35
 492.001 92.8461 1512.18
 490.056 94.6642 1552.26
 488.127 96.5218 1593.66
 486.212 98.4202 1636.41
 484.313 100.361 1680.59
 482.429 102.345 1726.25
 480.559 104.374 1773.46
 478.703 106.45 1822.28
 476.862 108.574 1872.79
 475.035 110.749 1925.06
 473.222 112.975 1979.18
 471.423 115.254 2035.23
 469.637 117.59 2093.3
 467.865 119.983 2153.48
 466.106 122.436 2215.88
 464.36 124.951 2280.6
 462.627 127.532 2347.75
 460.908 130.179 2417.46
 459.201 132.896 2489.85
 457.506 135.687 2565.06
 455.824 138.553 2643.23
 454.154 141.498 2724.51
 452.497 144.526 2809.07
 450.851 147.639 2897.08
 449.218 150.843 2988.72
 447.596 154.14 3084.2
 445.986 157.535 3183.72
 444.388 161.032 3287.51
 442.801 164.637 3395.8
 441.225 168.354 3508.87
 439.66 172.188 3626.98
 438.107 176.146 3750.43
 436.564 180.233 3879.54
 435.032 184.456 4014.66
 433.511 188.822 4156.14
 432 193.338 4304.4
 430.5 198.011 4459.85
 429.011 202.851 4622.96
 427.532 207.866 4794.23
 426.062 213.066 4974.19
 424.603 218.461 5163.45
 423.154 224.063 5362.61
 421.715 229.882 5572.39
 420.285 235.932 5793.52
 418.865 242.226 6026.82
 417.455 248.78 6273.18
 416.054 255.608 6533.57
 414.663 262.729 6809.03
 413.28 270.161 7100.75
 411.907 277.922 7409.97
 410.544 286.037 7738.09
 409.189 294.527 8086.63
 407.843 303.418 8457.29
 406.505 312.737 8851.9
 405.177 322.515 9272.51
 403.857 332.784 9721.38
 402.546 343.579 10201
 401.243 354.939 10714.1
 399.949 366.905 11263.7
 398.663 379.523 11853.3
 397.385 392.841 12486.6
 396.115 406.914 13167.7
 394.854 421.798 13901.3
 393.6 437.557 14692.5
 392.355 454.257 15547.1
 391.117 471.97 16471.3
 389.887 490.773 17472.1
 388.665 510.745 18557.3
 387.45 531.968 19735.3
 386.243 554.527 21015.3
 385.044 578.5 22407.3
 383.852 603.963 23922
 382.667 630.975 25570.7
 381.49 659.571 27364.8
 380.319 689.749 29316
 379.156 721.447 31435.4
 378 754.517 33732.9
 376.851 788.681 36216.7
 375.71 823.482 38892.3
 374.574 858.205 41762.1
 373.446 891.782 44826.1
 372.325 922.652 48083.2
 371.21 948.57 51535.1
 370.102 966.336 55190.4
 369 971.421 59063.7
 367.905 957.562 63153
 366.817 916.83 67355.3
 365.735 841.864 71270.6
 364.659 733.657 73935.4
 363.59 614.865 73919.8
 362.527 531.199 70455
 361.47 520.152 64719.8
 360.419 580.846 59078.1
 359.374 687.497 55219.5
 358.336 816.221 53640.8
 357.303 953.425 54153.4
 356.276 1092.26 56332.4
 355.255 1227.98 59683.8
 354.24 1355.23 63671.6
 353.231 1467.16 67724.4
 352.228 1555.81 71273.8
 351.23 1613.29 73831.8
 350.238 1633.27 75081.4
 349.251 1612.27 74940.4
 348.27 1550.97 73568.4
 347.295 1457.72 71307.6
 346.324 1357.18 68545.7
 345.36 1295.5 65451.9
 344.4 1299.78 61700.9
 343.446 1321.75 56893.8
 342.498 1300.04 51354.9
 341.554 1224.26 45693.8
 340.616 1110.38 40231.3
 339.683 977.153 35064.1
 338.754 845.401 30259.7
 337.831 743.492 25986.6
 336.913 701.545 22531.4
 336 720.03 20101.4
 335.092 752.061 18728.7
 334.189 753.09 18744.3
 333.291 723.59 20540.6
 332.397 683.995 22881.1
 331.508 651.621 24727.7
 330.624 651.702 27251.2
 329.745 705.175 30743.7
 328.87 803.998 33664.2
 328 883.429 34250.4
 327.135 891.695 32529.9
 326.274 845.73 29801.3
 325.418 777.308 26965
 324.566 704.212 24343.9
 323.718 633.454 21996.8
 322.875 567.127 19897.9
 322.037 505.41 18002.2
 321.202 447.849 16267.8
 320.372 394.039 14666.7
 319.547 344.378 13205
 318.725 301.228 11957
 317.908 269.185 11063.8
 317.095 254.021 10695.5
 316.286 262.615 11033.3
 315.481 286.753 11768
 314.681 301.473 12099.2
 313.884 306.992 11944.8
 313.091 312.969 11630.1
 312.303 317.566 11325.7
 311.518 315.61 11012
 310.737 302.756 10563.9
 309.96 284.403 10053.5
