 Energy(eV)     Sca_up     Sca_left
 442.801 20.1191 0.290135
 441.225 20.5253 0.306052
 439.66 20.9423 0.323155
 438.107 21.3706 0.341554
 436.564 21.8105 0.361368
 435.032 22.2627 0.382732
 433.511 22.7275 0.405794
 432 23.2057 0.430719
 430.5 23.6977 0.457692
 429.011 24.2043 0.486919
 427.532 24.726 0.518629
 426.062 25.2636 0.553081
 424.603 25.8178 0.590564
 423.154 26.3894 0.631403
 421.715 26.9793 0.675966
 420.285 27.5883 0.724667
 418.865 28.2174 0.777973
 417.455 28.8677 0.836417
 416.054 29.5401 0.900599
 414.663 30.2359 0.971208
 413.28 30.9562 1.04903
 411.907 31.7024 1.13495
 410.544 32.4758 1.23
 409.189 33.278 1.33537
 407.843 34.1105 1.4524
 406.505 34.975 1.58267
 405.177 35.8733 1.72799
 403.857 36.8073 1.89048
 402.546 37.7791 2.07258
 401.243 38.7909 2.27717
 399.949 39.845 2.50759
 398.663 40.9438 2.76779
 397.385 42.09 3.06241
 396.115 43.2864 3.3969
 394.854 44.5357 3.77777
 393.6 45.8412 4.21269
 392.355 47.2058 4.71082
 391.117 48.6329 5.28309
 389.887 50.1256 5.94254
 388.665 51.6872 6.70483
 387.45 53.3205 7.58868
 386.243 55.0281 8.61663
 385.044 56.8119 9.81565
 383.852 58.6729 11.2181
 382.667 60.6103 12.8626
 381.49 62.6208 14.7951
 380.319 64.6978 17.0697
 379.156 66.8291 19.7494
 378 68.9948 22.9063
 376.851 71.1636 26.6209
 375.71 73.2876 30.9792
 374.574 75.2939 36.0681
 373.446 77.0734 41.9669
 372.325 78.4623 48.7341
 371.21 79.2153 56.3911
 370.102 78.9659 64.9031
 369 77.1741 74.1622
 367.905 73.0799 83.9799
 366.817 65.745 94.0907
 365.735 54.4246 104.159
 364.659 39.6649 113.755
 363.59 24.8984 122.298
 362.527 16.0316 129.105
 361.47 16.9235 133.693
 360.419 26.0844 136.016
 359.374 39.3376 136.283
 358.336 53.4157 134.675
 357.303 66.7464 131.244
 356.276 78.7956 125.941
 355.255 89.4225 118.677
 354.24 98.5412 109.405
 353.231 105.99 98.2033
 352.228 111.511 85.3461
 351.23 114.775 71.3276
 350.238 115.447 56.8164
 349.251 113.268 42.5751
 348.27 108.261 29.433
 347.295 101.274 18.4507
 346.324 95.1109 11.2575
 345.36 94.8675 9.51091
 344.4 102.672 11.8257
 343.446 111.675 13.5622
 342.498 114.272 12.7479
 341.554 109.422 10.4745
 340.616 99.3297 7.93162
 339.683 86.5389 5.6642
 338.754 73.9355 3.83556
 337.831 65.4724 2.46595
 336.913 65.2476 1.55734
 336 73.0555 1.15906
 335.092 81.9975 1.36618
 334.189 85.2828 2.25176
 333.291 81.9084 3.91355
 332.397 74.2544 6.89808
 331.508 65.191 11.7775
 330.624 58.4187 17.0985
 329.745 58.8877 19.7264
 328.87 68.7904 18.6973
 328 80.1809 15.7413
 327.135 84.2236 12.5758
 326.274 81.4042 9.91873
