 Energy(eV)     Sca_U     Sca_D
 495.937 204.041 5350.84
 493.961 207.345 5509.89
 492.001 210.717 5674.46
 490.056 214.159 5844.8
 488.127 217.673 6021.13
 486.212 221.262 6203.71
 484.313 224.93 6392.8
 482.429 228.679 6588.68
 480.559 232.514 6791.64
 478.703 236.436 7002
 476.862 240.45 7220.06
 475.035 244.56 7446.18
 473.222 248.77 7680.7
 471.423 253.083 7924
 469.637 257.505 8176.49
 467.865 262.04 8438.57
 466.106 266.693 8710.69
 464.36 271.469 8993.32
 462.627 276.372 9286.93
 460.908 281.41 9592.06
 459.201 286.587 9909.24
 457.506 291.91 10239.1
 455.824 297.385 10582.1
 454.154 303.018 10939.1
 452.497 308.818 11310.6
 450.851 314.791 11697.5
 449.218 320.944 12100.4
 447.596 327.286 12520.2
 445.986 333.825 12957.7
 444.388 340.57 13413.9
 442.801 347.529 13889.8
 441.225 354.713 14386.3
 439.66 362.13 14904.6
 438.107 369.791 15445.9
 436.564 377.707 16011.4
 435.032 385.887 16602.4
 433.511 394.344 17220.3
 432 403.087 17866.7
 430.5 412.129 18543.2
 429.011 421.482 19251.5
 427.532 431.157 19993.5
 426.062 441.165 20771.1
 424.603 451.52 21586.6
 423.154 462.232 22442.1
 421.715 473.312 23340.3
 420.285 484.772 24283.7
 418.865 496.622 25275.3
 417.455 508.87 26318.3
 416.054 521.525 27416.1
 414.663 534.594 28572.5
 413.28 548.08 29791.6
 411.907 561.987 31078.2
 410.544 576.315 32437.3
 409.189 591.061 33874.7
 407.843 606.217 35396.9
 406.505 621.774 37011.3
 405.177 637.717 38726.5
 403.857 654.026 40552.2
 402.546 670.678 42500
 401.243 687.645 44583.4
 399.949 704.894 46818.4
 398.663 722.392 49224.3
 397.385 740.103 51824
 396.115 758 54645.3
 394.854 776.06 57721.4
 393.6 794.282 61092.3
 392.355 812.692 64805.2
 391.117 831.364 68914.6
 389.887 850.433 73481.6
 388.665 870.13 78569.3
 387.45 890.802 84234.7
 386.243 912.942 90512
 385.044 937.202 97383.9
 383.852 964.37 104738
 382.667 995.275 112313
 381.49 1030.59 119643
 380.319 1070.56 126056
 379.156 1114.63 130760
 378 1161.44 133059
 376.851 1209.06 132626
 375.71 1255.65 129669
 374.574 1300.18 124868
 373.446 1342.58 119121
 372.325 1383.58 113264
 371.21 1424.18 107914
 370.102 1465.28 103430
 369 1507.41 99963.3
 367.905 1550.63 97526.8
 366.817 1594.62 96052.8
 365.735 1638.66 95438.1
 364.659 1681.8 95572.4
 363.59 1722.97 96357.3
 362.527 1761.06 97719.8
 361.47 1795.06 99622.2
 360.419 1824.12 102069
 359.374 1847.51 105105
 358.336 1864.49 108798
 357.303 1873.57 113173
 356.276 1871.12 118058
 355.255 1849.18 122794
 354.24 1795.57 125889
 353.231 1705.2 125183
 352.228 1602.39 119454
 351.23 1527.07 110178
 350.238 1482.03 99995.7
 349.251 1440.34 90317.3
 348.27 1384.41 81444.2
 347.295 1311.65 73315.6
 346.324 1225.96 65790.8
 345.36 1132.99 58728.7
 344.4 1038.76 52042.4
 343.446 948.184 45778.5
 342.498 860.222 40256.2
 341.554 763.09 36294.4
 340.616 647.644 35413.4
 339.683 542.1 38955.6
 338.754 503.859 44861
 337.831 539.455 48253.9
 336.913 617.258 48157.8
 336 745.351 47471.9
 335.092 960.828 49303.2
 334.189 1262.62 54957.5
 333.291 1552.61 62346.6
 332.397 1698.86 67321.8
 331.508 1676.2 67992
 330.624 1555.11 65512.9
 329.745 1403.84 61626.6
 328.87 1256.21 57401.8
 328 1123.35 53303.7
 327.135 1006.76 49486
 326.274 904.721 45970.7
 325.418 814.781 42729.6
 324.566 734.575 39718.4
 323.718 662.02 36888.8
 322.875 595.32 34194.1
 322.037 532.974 31596.2
 321.202 473.944 29087.2
 320.372 418.255 26741.4
 319.547 368.415 24739.1
 318.725 332.886 23249.8
 317.908 329.537 22702.8
 317.095 363.934 23614.9
 316.286 401.394 24977.3
 315.481 415.623 25374.2
 314.681 417.476 24877.6
 313.884 416.087 24038.5
 313.091 413.62 23308.6
 312.303 404.126 22714.5
 311.518 384.06 21953.9
 310.737 360.318 21051.1
 309.96 339.07 20266.4
