 Energy(eV)     Sca_up     Sca_left
 442.801 31.7707 2.00066
 441.225 32.0929 2.13496
 439.66 32.418 2.27986
 438.107 32.746 2.43632
 436.564 33.077 2.60541
 435.032 33.411 2.78827
 433.511 33.7481 2.98618
 432 34.0881 3.20056
 430.5 34.4313 3.43297
 429.011 34.7775 3.68512
 427.532 35.1267 3.95892
 426.062 35.4789 4.25647
 424.603 35.834 4.58009
 423.154 36.1918 4.93235
 421.715 36.5523 5.3161
 420.285 36.9152 5.73449
 418.865 37.2803 6.19099
 417.455 37.6473 6.68946
 416.054 38.016 7.23416
 414.663 38.386 7.82976
 413.28 38.7568 8.48148
 411.907 39.128 9.195
 410.544 39.4992 9.9766
 409.189 39.8698 10.8332
 407.843 40.2395 11.7723
 406.505 40.6078 12.8021
 405.177 40.9747 13.9315
 403.857 41.3401 15.1702
 402.546 41.7046 16.5285
 401.243 42.0696 18.0174
 399.949 42.4372 19.6485
 398.663 42.8114 21.434
 397.385 43.1984 23.3864
 396.115 43.6074 25.5185
 394.854 44.0525 27.8428
 393.6 44.5541 30.3716
 392.355 45.1416 33.1166
 391.117 45.8569 36.0883
 389.887 46.7582 39.2957
 388.665 47.9259 42.7458
 387.45 49.4668 46.4434
 386.243 51.5193 50.3899
 385.044 54.2514 54.5819
 383.852 57.8493 59.0084
 382.667 62.4848 63.6445
 381.49 68.2538 68.4428
 380.319 75.0899 73.3214
 379.156 82.6839 78.1545
 378 90.4711 82.7755
 376.851 97.7428 86.9978
 375.71 103.858 90.6507
 374.574 108.438 93.6103
 373.446 111.434 95.8104
 372.325 113.049 97.2328
 371.21 113.607 97.8904
 370.102 113.437 97.8125
 369 112.809 97.0381
 367.905 111.917 95.6143
 366.817 110.886 93.5975
 365.735 109.787 91.0545
 364.659 108.659 88.0632
 363.59 107.526 84.7126
 362.527 106.42 81.1001
 361.47 105.399 77.3293
 360.419 104.573 73.5033
 359.374 104.127 69.7143
 358.336 104.342 66.0219
 357.303 105.585 62.4113
 356.276 108.206 58.7163
 355.255 112.276 54.5151
 354.24 117.174 49.1128
 353.231 121.555 41.9729
 352.228 124.222 33.7568
 351.23 124.642 26.3404
 350.238 122.204 20.796
 349.251 116.6 16.7788
 348.27 108.448 13.6814
 347.295 98.831 11.1662
 346.324 88.8257 9.09733
 345.36 79.4451 7.43017
 344.4 71.731 6.16576
 343.446 66.5972 5.33875
 342.498 64.0222 5.01157
 341.554 62.0905 5.22787
 340.616 58.1596 5.80897
 339.683 52.2399 6.00394
 338.754 47.5234 4.98088
 337.831 46.5569 3.50654
 336.913 50.6859 3.39772
 336 62.8345 5.71372
 335.092 86.7954 10.3142
 334.189 121.804 15.5223
 333.291 155.809 18.8718
 332.397 172.02 19.3549
 331.508 167.01 17.854
 330.624 150.054 15.6168
 329.745 130.09 13.3755
 328.87 111.38 11.4002
 328 95.1675 9.74069
 327.135 81.468 8.36975
 326.274 69.9335 7.24152
