 Energy(eV)     Sca_U     Sca_D
 495.937 59.3673 16358.9
 493.961 61.5093 16833.2
 492.001 63.7439 17322.4
 490.056 66.0752 17826.9
 488.127 68.5077 18347.4
 486.212 71.0461 18884.5
 484.313 73.6954 19439
 482.429 76.4606 20011.6
 480.559 79.3473 20603
 478.703 82.3613 21214.2
 476.862 85.5087 21845.9
 475.035 88.7961 22499.3
 473.222 92.2304 23175.3
 471.423 95.819 23875.1
 469.637 99.5696 24599.9
 467.865 103.491 25351.1
 466.106 107.591 26130
 464.36 111.881 26938.4
 462.627 116.369 27777.9
 460.908 121.069 28650.4
 459.201 125.991 29558
 457.506 131.148 30503.1
 455.824 136.555 31488
 454.154 142.228 32515.7
 452.497 148.182 33589.2
 450.851 154.438 34711.9
 449.218 161.015 35887.7
 447.596 167.937 37120.8
 445.986 175.229 38416
 444.388 182.919 39778.4
 442.801 191.04 41214.1
 441.225 199.628 42729.7
 439.66 208.724 44332.5
 438.107 218.375 46030.9
 436.564 228.634 47834.2
 435.032 239.563 49752.8
 433.511 251.233 51798.3
 432 263.725 53983.8
 430.5 277.134 56323.8
 429.011 291.572 58834.4
 427.532 307.165 61533.4
 426.062 324.065 64440.2
 424.603 342.444 67576.1
 423.154 362.505 70963.7
 421.715 384.483 74626.8
 420.285 408.648 78590
 418.865 435.31 82877.3
 417.455 464.819 87511.3
 416.054 497.566 92510.8
 414.663 533.98 97888.2
 413.28 574.515 103646
 411.907 619.636 109772
 410.544 669.79 116235
 409.189 725.364 122976
 407.843 786.633 129907
 406.505 853.694 136902
 405.177 926.394 143798
 403.857 1004.27 150399
 402.546 1086.5 156481
 401.243 1171.91 161815
 399.949 1259.03 166188
 398.663 1346.22 169425
 397.385 1431.85 171419
 396.115 1514.49 172143
 394.854 1593.08 171652
 393.6 1667.07 170078
 392.355 1736.46 167610
 391.117 1801.78 164470
 389.887 1864.01 160886
 388.665 1924.46 157078
 387.45 1984.7 153242
 386.243 2046.46 149543
 385.044 2111.57 146114
 383.852 2181.91 143063
 382.667 2259.44 140470
 381.49 2346.2 138398
 380.319 2444.32 136901
 379.156 2556.08 136023
 378 2683.95 135810
 376.851 2830.59 136310
 375.71 2998.94 137578
 374.574 3192.22 139676
 373.446 3413.93 142679
 372.325 3667.83 146665
 371.21 3957.84 151709
 370.102 4287.68 157864
 369 4659.9 165122
 367.905 5073.24 173334
 366.817 5516 182055
 365.735 5952.23 190299
 364.659 6302.61 196291
 363.59 6442.19 197683
 362.527 6258.2 192820
 361.47 5750.26 182319
 360.419 5046.39 168777
 359.374 4301.91 154757
 358.336 3615.44 141607
 357.303 3023.82 129676
 356.276 2529.53 118888
 355.255 2122.19 109084
 354.24 1788.81 100180
 353.231 1517.52 92241.1
 352.228 1298.3 85584.9
 351.23 1122.05 80923.9
 350.238 978.29 79421.4
 349.251 852.849 82140.5
 348.27 730.999 88337
 347.295 608.58 94424.3
 346.324 495.563 96866.3
 345.36 403.329 95337.6
 344.4 336.663 91674.3
 343.446 296.873 87872.9
 342.498 285.498 85520.5
 341.554 303.952 85851
 340.616 348.877 89504.6
 339.683 406.163 95814.7
 338.754 452.996 102520
 337.831 472.191 107039
 336.913 462.664 108219
 336 434.108 106513
 335.092 397.059 102989
 334.189 358.499 98574.6
 333.291 321.978 93858.3
 332.397 288.911 89158.3
 331.508 259.606 84623.8
 330.624 233.874 80311.1
 329.745 211.34 76229.1
 328.87 191.588 72363
 328 174.231 68686.7
 327.135 158.927 65168
 326.274 145.386 61771.2
 325.418 133.356 58458.1
 324.566 122.595 55189.7
 323.718 112.797 51936.7
 322.875 103.313 48712.1
 322.037 92.3784 45640
 321.202 76.2608 42928
 320.372 53.2532 40641.8
 319.547 32.7779 39360.8
 318.725 27.2779 40359.7
 317.908 36.5923 42738.4
 317.095 49.8896 44035.3
 316.286 57.481 43762.2
 315.481 59.3475 42561.7
 314.681 59.3171 41168.2
 313.884 59.1975 40079
 313.091 57.467 39088
 312.303 53.9354 37820.6
 311.518 49.8357 36358.4
 310.737 45.7888 35043.6
 309.96 41.9447 34221
