 Energy(eV)     Sca_up     Sca_left
 442.801 25.5633 7.84921
 441.225 25.7831 8.27484
 439.66 26.069 8.72364
 438.107 26.4328 9.1968
 436.564 26.8882 9.69558
 435.032 27.4515 10.2213
 433.511 28.1414 10.7753
 432 28.9799 11.3589
 430.5 29.9927 11.9738
 429.011 31.2097 12.6215
 427.532 32.6655 13.3035
 426.062 34.4007 14.0217
 424.603 36.4619 14.7778
 423.154 38.9027 15.5738
 421.715 41.7848 16.4119
 420.285 45.1778 17.2943
 418.865 49.1599 18.2233
 417.455 53.8172 19.2018
 416.054 59.2431 20.2324
 414.663 65.5353 21.3183
 413.28 72.792 22.4626
 411.907 81.1053 23.6685
 410.544 90.5525 24.9392
 409.189 101.183 26.2771
 407.843 113.004 27.6841
 406.505 125.963 29.1606
 405.177 139.93 30.7049
 403.857 154.685 32.3126
 402.546 169.915 33.9762
 401.243 185.217 35.6844
 399.949 200.13 37.4229
 398.663 214.166 39.1749
 397.385 226.869 40.9227
 396.115 237.858 42.6492
 394.854 246.871 44.3405
 393.6 253.784 45.9872
 392.355 258.615 47.5857
 391.117 261.498 49.1392
 389.887 262.656 50.6574
 388.665 262.367 52.1572
 387.45 260.929 53.6616
 386.243 258.636 55.2006
 385.044 255.762 56.8112
 383.852 252.551 58.5381
 382.667 249.213 60.4353
 381.49 245.929 62.5677
 380.319 242.849 65.0146
 379.156 240.1 67.8731
 378 237.788 71.2635
 376.851 236.003 75.3373
 375.71 234.816 80.2868
 374.574 234.279 86.3586
 373.446 234.416 93.8713
 372.325 235.209 103.237
 371.21 236.579 114.981
 370.102 238.348 129.752
 369 240.207 148.275
 367.905 241.684 171.169
 366.817 242.147 198.419
 365.735 240.909 228.267
 364.659 237.501 255.614
 363.59 232.054 271.618
 362.527 225.366 267.798
 361.47 218.251 243.465
 360.419 210.817 207.123
 359.374 202.651 169.216
 358.336 193.428 136.052
 357.303 183.16 109.539
 356.276 172.094 89.2773
 355.255 160.561 74.1555
 354.24 148.923 63.0674
 353.231 137.637 55.1113
 352.228 127.437 49.5709
 351.23 119.606 45.7571
 350.238 116.211 42.7357
 349.251 119.911 39.0993
 348.27 132.941 33.4233
 347.295 155.459 25.7122
 346.324 185.452 17.729
 345.36 221.586 11.1283
 344.4 265.151 6.3788
 343.446 319.069 3.28348
 342.498 385.428 1.59745
 341.554 461.845 1.22456
 340.616 537.008 2.10895
 339.683 590.265 3.94504
 338.754 602.551 6.01688
 337.831 572 7.55374
 336.913 514.217 8.24171
 336 448.024 8.22792
 335.092 385.487 7.80278
 334.189 331.449 7.1981
 333.291 286.575 6.55144
 332.397 249.833 5.93215
 331.508 219.771 5.3705
 330.624 195.015 4.8768
 329.745 174.423 4.45226
 328.87 157.087 4.0946
 328 142.296 3.80106
 327.135 129.495 3.57001
 326.274 118.247 3.40203
