 Energy(eV)     Sca_U     Sca_D
 442.801 5.73266 2903.07
 441.225 5.84438 2980.4
 439.66 5.95884 3060.37
 438.107 6.07607 3143.1
 436.564 6.19615 3228.71
 435.032 6.31911 3317.36
 433.511 6.44502 3409.19
 432 6.57393 3504.37
 430.5 6.70592 3603.05
 429.011 6.84104 3705.43
 427.532 6.97937 3811.7
 426.062 7.12098 3922.06
 424.603 7.26596 4036.73
 423.154 7.41439 4155.96
 421.715 7.56638 4280
 420.285 7.72202 4409.11
 418.865 7.88144 4543.59
 417.455 8.04476 4683.76
 416.054 8.21212 4829.95
 414.663 8.38368 4982.52
 413.28 8.55962 5141.87
 411.907 8.74013 5308.42
 410.544 8.92545 5482.63
 409.189 9.11581 5664.98
 407.843 9.31152 5856.02
 406.505 9.5129 6056.33
 405.177 9.72033 6266.53
 403.857 9.93425 6487.31
 402.546 10.1552 6719.42
 401.243 10.3837 6963.67
 399.949 10.6204 7220.95
 398.663 10.8662 7492.23
 397.385 11.1221 7778.58
 396.115 11.389 8081.16
 394.854 11.6684 8401.26
 393.6 11.9617 8740.29
 392.355 12.2708 9099.83
 391.117 12.5979 9481.58
 389.887 12.9457 9887.47
 388.665 13.3172 10319.6
 387.45 13.7164 10780.4
 386.243 14.1478 11272.4
 385.044 14.617 11798.6
 383.852 15.1309 12362.3
 382.667 15.6979 12967.1
 381.49 16.3282 13617.3
 380.319 17.0344 14317.6
 379.156 17.8324 15073.1
 378 18.7415 15890.1
 376.851 19.7863 16775.2
 375.71 20.9972 17736.3
 374.574 22.4128 18782.4
 373.446 24.0818 19923.5
 372.325 26.0663 21171.6
 371.21 28.4455 22540
 370.102 31.3211 24044.3
 369 34.8245 25702.6
 367.905 39.1257 27535.7
 366.817 44.4466 29567.5
 365.735 51.0769 31825.8
 364.659 59.3973 34342.5
 363.59 69.9091 37154
 362.527 83.274 40301.7
 361.47 100.366 43831.4
 360.419 122.338 47793.3
 359.374 150.705 52239.3
 358.336 187.438 57220.5
 357.303 235.068 62780.1
 356.276 296.772 68944.5
 355.255 376.402 75708.7
 354.24 478.384 83018.6
 353.231 607.41 90751.8
 352.228 767.824 98704.1
 351.23 962.727 106593
 350.238 1192.99 114092
 349.251 1456.62 120898
 348.27 1749.02 126813
 347.295 2064.25 131809
 346.324 2396.72 136012
 345.36 2741.38 139583
 344.4 3089.46 142448
 343.446 3416.63 143920
 342.498 3667.55 142507
 341.554 3763.52 136712
 340.616 3658.4 126853
 339.683 3377.77 115350
 338.754 2973.44 104890
 337.831 2480.6 97227
 336.913 1950.57 92570.5
 336 1470.34 89945.2
 335.092 1103.38 88523.3
 334.189 860.214 87891.3
 333.291 710.323 87079.3
 332.397 614.227 84499.5
 331.508 545.468 79864.9
 330.624 485.108 74091.3
 329.745 425.488 68072
 328.87 368.675 62292.4
 328 317.659 56936.6
 327.135 273.475 52047.3
 326.274 235.869 47613
