 Energy(eV)     Sca_U     Sca_D
 442.801 12.1537 608.241
 441.225 12.3769 624.338
 439.66 12.608 640.976
 438.107 12.8473 658.181
 436.564 13.095 675.979
 435.032 13.3517 694.398
 433.511 13.6178 713.469
 432 13.8936 733.224
 430.5 14.1796 753.696
 429.011 14.4764 774.921
 427.532 14.7845 796.937
 426.062 15.1044 819.786
 424.603 15.4366 843.51
 423.154 15.7819 868.156
 421.715 16.1409 893.773
 420.285 16.5143 920.415
 418.865 16.9029 948.137
 417.455 17.3073 976.999
 416.054 17.7286 1007.07
 414.663 18.1676 1038.41
 413.28 18.6253 1071.1
 411.907 19.1028 1105.22
 410.544 19.601 1140.85
 409.189 20.1214 1178.09
 407.843 20.665 1217.04
 406.505 21.2334 1257.8
 405.177 21.828 1300.48
 403.857 22.4505 1345.22
 402.546 23.1024 1392.15
 401.243 23.7858 1441.41
 399.949 24.5026 1493.17
 398.663 25.255 1547.59
 397.385 26.0455 1604.87
 396.115 26.8765 1665.2
 394.854 27.7509 1728.82
 393.6 28.6717 1795.96
 392.355 29.6423 1866.9
 391.117 30.6663 1941.92
 389.887 31.7477 2021.34
 388.665 32.8909 2105.52
 387.45 34.1006 2194.85
 386.243 35.3822 2289.76
 385.044 36.7414 2390.72
 383.852 38.1848 2498.25
 382.667 39.7194 2612.95
 381.49 41.3531 2735.45
 380.319 43.0947 2866.5
 379.156 44.9541 3006.89
 378 46.9421 3157.54
 376.851 49.071 3319.48
 375.71 51.3547 3493.84
 374.574 53.8085 3681.93
 373.446 56.4502 3885.23
 372.325 59.2994 4105.4
 371.21 62.3788 4344.37
 370.102 65.7141 4604.31
 369 69.3348 4887.72
 367.905 73.2747 5197.51
 366.817 77.5728 5537
 365.735 82.2744 5910.07
 364.659 87.4318 6321.23
 363.59 93.1064 6775.76
 362.527 99.37 7279.87
 361.47 106.307 7840.87
 360.419 114.019 8467.45
 359.374 122.624 9169.95
 358.336 132.264 9960.73
 357.303 143.113 10854.6
 356.276 155.376 11869.6
 355.255 169.305 13027.4
 354.24 185.207 14354.4
 353.231 203.454 15882.6
 352.228 224.504 17651.3
 351.23 248.91 19708
 350.238 277.345 22110
 349.251 310.602 24925.5
 348.27 349.586 28233.2
 347.295 395.255 32119.8
 346.324 448.456 36670.9
 345.36 509.57 41951.3
 344.4 577.859 47961.4
 343.446 650.5 54547.8
 342.498 721.986 61216.6
 341.554 786.575 66801.7
 340.616 847.949 69331
 339.683 926.665 67549
 338.754 1034.57 63656.6
 337.831 1143.99 61398.1
 336.913 1208.13 61308.8
 336 1200.69 60720.2
 335.092 1140.5 57376.9
 334.189 1060.79 51476.3
 333.291 979.019 44668.4
 332.397 924.891 38932.3
 331.508 916.227 35752.5
 330.624 916.864 35115.2
 329.745 868.548 35757.6
 328.87 768.358 35303.4
 328 654.763 32848.1
 327.135 553.351 29454.1
 326.274 469.709 26036.7
