 Energy(eV)     Sca_U     Sca_D
 495.937 2.13425 324.471
 493.961 2.18147 332.212
 492.001 2.22987 340.163
 490.056 2.27951 348.333
 488.127 2.33042 356.73
 486.212 2.38266 365.36
 484.313 2.43626 374.235
 482.429 2.49128 383.361
 480.559 2.54778 392.75
 478.703 2.60581 402.41
 476.862 2.66543 412.353
 475.035 2.72671 422.59
 473.222 2.7897 433.132
 471.423 2.85449 443.991
 469.637 2.92114 455.18
 467.865 2.98973 466.713
 466.106 3.06035 478.603
 464.36 3.13308 490.867
 462.627 3.20801 503.519
 460.908 3.28524 516.576
 459.201 3.36488 530.056
 457.506 3.44703 543.977
 455.824 3.53182 558.359
 454.154 3.61936 573.222
 452.497 3.70978 588.588
 450.851 3.80323 604.481
 449.218 3.89986 620.925
 447.596 3.99982 637.946
 445.986 4.10329 655.571
 444.388 4.21044 673.83
 442.801 4.32148 692.753
 441.225 4.4366 712.374
 439.66 4.55602 732.728
 438.107 4.68 753.852
 436.564 4.80879 775.786
 435.032 4.94265 798.573
 433.511 5.08189 822.258
 432 5.22682 846.889
 430.5 5.3778 872.517
 429.011 5.53519 899.2
 427.532 5.69939 926.995
 426.062 5.87085 955.968
 424.603 6.05004 986.185
 423.154 6.23747 1017.72
 421.715 6.43371 1050.65
 420.285 6.63936 1085.07
 418.865 6.8551 1121.06
 417.455 7.08166 1158.73
 416.054 7.31984 1198.18
 414.663 7.57052 1239.52
 413.28 7.83467 1282.89
 411.907 8.11336 1328.43
 410.544 8.40777 1376.27
 409.189 8.71922 1426.58
 407.843 9.04915 1479.55
 406.505 9.3992 1535.35
 405.177 9.77115 1594.21
 403.857 10.167 1656.36
 402.546 10.5892 1722.05
 401.243 11.04 1791.56
 399.949 11.5225 1865.21
 398.663 12.04 1943.32
 397.385 12.5961 2026.3
 396.115 13.195 2114.55
 394.854 13.8417 2208.54
 393.6 14.5416 2308.81
 392.355 15.3013 2415.93
 391.117 16.1282 2530.56
 389.887 17.031 2653.46
 388.665 18.0198 2785.45
 387.45 19.1066 2927.48
 386.243 20.3056 3080.65
 385.044 21.6336 3246.17
 383.852 23.1106 3425.48
 382.667 24.7609 3620.2
 381.49 26.6139 3832.23
 380.319 28.7053 4063.76
 379.156 31.0793 4317.35
 378 33.7906 4596.03
 376.851 36.9073 4903.36
 375.71 40.5158 5243.58
 374.574 44.7259 5621.78
 373.446 49.6787 6044.06
 372.325 55.5579 6517.84
 371.21 62.6047 7052.18
 370.102 71.1397 7658.21
 369 81.594 8349.67
 367.905 94.5535 9143.63
 366.817 110.824 10061.3
 365.735 131.521 11128.9
 364.659 158.203 12378.6
 363.59 193.038 13848.4
 362.527 239.015 15580.4
 361.47 300.102 17614.2
 360.419 381.154 19969.1
 359.374 486.994 22608.3
 358.336 619.66 25376.2
 357.303 772.987 27927.3
 356.276 926.642 29711.4
 355.255 1047.56 30071.5
 354.24 1105.18 28398.5
 353.231 1092.32 24713.2
 352.228 1034.12 20763.5
 351.23 965.258 18561
 350.238 903.469 18445.4
 349.251 852.318 20026.7
 348.27 808.837 23032.1
 347.295 765.584 27324.1
 346.324 710.902 32634.2
 345.36 631.785 38163.2
 344.4 523.897 42356.3
 343.446 403.976 43587.6
 342.498 304.426 41598.1
 341.554 248.08 37823.5
 340.616 229.719 34174.8
 339.683 215.607 31520.9
 338.754 180.94 28912.4
 337.831 138.496 25483.3
 336.913 102.783 21649.5
 336 76.408 17957.7
 335.092 58.0923 14705.4
 334.189 47.2818 12157.6
 333.291 44.985 10672.9
 332.397 51.5928 10423.4
 331.508 63.2243 10839.2
 330.624 74.9436 11079.1
 329.745 87.9413 11077.7
 328.87 107.101 11215
 328 126.692 11618.9
 327.135 126.977 12063.5
 326.274 105.053 12188.3
 325.418 79.363 11891.5
 324.566 60.5895 11049.3
 323.718 48.0219 9889.43
 322.875 39.159 8721.72
 322.037 32.5365 7667.59
 321.202 27.3632 6741.08
 320.372 23.1668 5925.76
 319.547 19.6372 5203.98
 318.725 16.5525 4570.22
 317.908 13.769 4045.03
 317.095 11.3523 3683.53
 316.286 9.8677 3560.25
 315.481 10.1292 3727.83
 314.681 11.3414 4040.36
 313.884 11.9874 4188.4
 313.091 12.5312 4196.16
 312.303 13.23 4182.79
 311.518 13.4629 4117.77
 310.737 13.0408 3963.82
 309.96 12.1219 3733.85
