 Energy(eV)     Sca_U     Sca_D
 495.937 2.61728 33.5886
 493.961 2.68139 34.4032
 492.001 2.7472 35.2394
 490.056 2.81476 36.0978
 488.127 2.88414 36.9793
 486.212 2.95539 37.8845
 484.313 3.02858 38.8144
 482.429 3.10377 39.7698
 480.559 3.18104 40.7515
 478.703 3.26045 41.7606
 476.862 3.34209 42.7979
 475.035 3.42603 43.8645
 473.222 3.51235 44.9615
 471.423 3.60114 46.09
 469.637 3.6925 47.2512
 467.865 3.78651 48.4462
 466.106 3.88328 49.6765
 464.36 3.98291 50.9432
 462.627 4.08551 52.2479
 460.908 4.19121 53.5921
 459.201 4.3001 54.9772
 457.506 4.41234 56.405
 455.824 4.52804 57.8772
 454.154 4.64735 59.3956
 452.497 4.77042 60.962
 450.851 4.8974 62.5787
 449.218 5.02845 64.2475
 447.596 5.16376 65.9709
 445.986 5.30349 67.7512
 444.388 5.44785 69.5909
 442.801 5.59704 71.4925
 441.225 5.75127 73.459
 439.66 5.91077 75.4933
 438.107 6.07577 77.5984
 436.564 6.24654 79.7778
 435.032 6.42334 82.0349
 433.511 6.60645 84.3735
 432 6.79618 86.7976
 430.5 6.99286 89.3112
 429.011 7.19681 91.919
 427.532 7.40841 94.6256
 426.062 7.62804 97.4362
 424.603 7.85611 100.356
 423.154 8.09306 103.391
 421.715 8.33936 106.548
 420.285 8.59551 109.832
 418.865 8.86204 113.251
 417.455 9.13951 116.812
 416.054 9.42855 120.525
 414.663 9.72981 124.396
 413.28 10.044 128.436
 411.907 10.3718 132.654
 410.544 10.7142 137.061
 409.189 11.0718 141.67
 407.843 11.4458 146.492
 406.505 11.8371 151.541
 405.177 12.2468 156.831
 403.857 12.676 162.379
 402.546 13.1262 168.202
 401.243 13.5986 174.317
 399.949 14.0947 180.747
 398.663 14.6163 187.512
 397.385 15.165 194.637
 396.115 15.7428 202.148
 394.854 16.3519 210.073
 393.6 16.9945 218.446
 392.355 17.6733 227.299
 391.117 18.3909 236.672
 389.887 19.1505 246.607
 388.665 19.9554 257.149
 387.45 20.8093 268.351
 386.243 21.7164 280.268
 385.044 22.6812 292.966
 383.852 23.7088 306.515
 382.667 24.8048 320.992
 381.49 25.9754 336.488
 380.319 27.2278 353.102
 379.156 28.5696 370.946
 378 30.0099 390.146
 376.851 31.5585 410.847
 375.71 33.2267 433.212
 374.574 35.0273 457.429
 373.446 36.9747 483.712
 372.325 39.0855 512.309
 371.21 41.3787 543.507
 370.102 43.8762 577.638
 369 46.6029 615.094
 367.905 49.5882 656.333
 366.817 52.866 701.9
 365.735 56.4759 752.443
 364.659 60.4647 808.742
 363.59 64.8875 871.746
 362.527 69.8098 942.612
 361.47 75.3102 1022.78
 360.419 81.4829 1114.05
 359.374 88.4422 1218.71
 358.336 96.3279 1339.74
 357.303 105.312 1481.05
 356.276 115.606 1647.89
 355.255 127.479 1847.5
 354.24 141.263 2090.03
 353.231 157.378 2389.83
 352.228 176.337 2766.68
 351.23 198.709 3244.03
 350.238 224.898 3831.93
 349.251 254.449 4462.87
 348.27 285.375 4903.75
 347.295 318.098 4976.24
 346.324 361.074 4992.69
 345.36 420.526 5325.25
 344.4 496.435 6026.78
 343.446 588.235 7051.73
 342.498 694.495 8365.46
 341.554 809.488 9917.03
 340.616 919.091 11559
 339.683 998.522 12901.8
 338.754 1018.78 13306.3
 337.831 967.104 12558.1
 336.913 861.304 11179.7
 336 733.21 9599.38
 335.092 600.312 7868.6
 334.189 472.64 6151.64
 333.291 362.528 4684.19
 332.397 277.952 3573.78
 331.508 225.723 2885.47
 330.624 215.619 2716.74
 329.745 248.39 3059.62
 328.87 288.444 3488.75
 328 293.311 3520
 327.135 266.802 3221.19
 326.274 230.796 2862.11
 325.418 197.514 2561.8
 324.566 171.089 2304.14
 323.718 151.551 2075
 322.875 134.6 1845.33
 322.037 117.732 1605.24
 321.202 101.936 1380.95
 320.372 87.929 1185.06
 319.547 75.7031 1016.8
 318.725 65.0566 872.405
 317.908 55.9051 750.038
 317.095 48.5152 652.942
 316.286 43.7321 591.679
 315.481 43.0763 583.725
 314.681 47.4832 637.549
 313.884 53.123 704.506
 313.091 56.035 735.625
 312.303 58.3955 757.705
 311.518 59.7824 768.274
 310.737 58.1872 745.25
 309.96 54.2356 695.006
