 Energy(eV)     Sca_U     Sca_D
 495.937 0.257665 35.9482
 493.961 0.263851 36.8208
 492.001 0.270198 37.7164
 490.056 0.276712 38.6359
 488.127 0.283399 39.58
 486.212 0.290263 40.5496
 484.313 0.297311 41.5457
 482.429 0.30455 42.569
 480.559 0.311986 43.6206
 478.703 0.319625 44.7014
 476.862 0.327476 45.8125
 475.035 0.335546 46.955
 473.222 0.343842 48.13
 471.423 0.352373 49.3388
 469.637 0.361148 50.5825
 467.865 0.370176 51.8626
 466.106 0.379466 53.1803
 464.36 0.389028 54.5371
 462.627 0.398873 55.9346
 460.908 0.409012 57.3743
 459.201 0.419457 58.8579
 457.506 0.430219 60.3871
 455.824 0.441312 61.9639
 454.154 0.452749 63.5902
 452.497 0.464544 65.2679
 450.851 0.476713 66.9993
 449.218 0.489271 68.7867
 447.596 0.502234 70.6325
 445.986 0.515622 72.5391
 444.388 0.529451 74.5093
 442.801 0.543742 76.5458
 441.225 0.558516 78.6518
 439.66 0.573795 80.8302
 438.107 0.589602 83.0846
 436.564 0.605961 85.4184
 435.032 0.6229 87.8354
 433.511 0.640446 90.3395
 432 0.658629 92.9351
 430.5 0.677479 95.6266
 429.011 0.697032 98.4188
 427.532 0.717322 101.317
 426.062 0.738388 104.326
 424.603 0.76027 107.452
 423.154 0.783011 110.701
 421.715 0.806659 114.08
 420.285 0.831262 117.596
 418.865 0.856875 121.256
 417.455 0.883553 125.068
 416.054 0.911358 129.042
 414.663 0.940357 133.185
 413.28 0.970619 137.509
 411.907 1.00222 142.023
 410.544 1.03524 146.74
 409.189 1.06978 151.672
 407.843 1.10592 156.832
 406.505 1.14377 162.234
 405.177 1.18345 167.894
 403.857 1.22507 173.83
 402.546 1.26877 180.059
 401.243 1.31469 186.601
 399.949 1.36299 193.478
 398.663 1.41385 200.714
 397.385 1.46744 208.334
 396.115 1.52399 216.366
 394.854 1.58371 224.842
 393.6 1.64686 233.794
 392.355 1.71371 243.259
 391.117 1.78457 253.279
 389.887 1.85977 263.897
 388.665 1.9397 275.165
 387.45 2.02477 287.135
 386.243 2.11544 299.869
 385.044 2.21225 313.435
 383.852 2.31577 327.908
 382.667 2.42669 343.37
 381.49 2.54573 359.918
 380.319 2.67377 377.656
 379.156 2.81176 396.704
 378 2.96083 417.195
 376.851 3.12225 439.283
 375.71 3.2975 463.141
 374.574 3.48831 488.968
 373.446 3.69668 516.99
 372.325 3.92498 547.47
 371.21 4.17601 580.709
 370.102 4.45313 617.061
 369 4.76038 656.936
 367.905 5.10265 700.819
 366.817 5.48598 749.28
 365.735 5.91787 803.001
 364.659 6.40777 862.799
 363.59 6.96775 929.665
 362.527 7.61355 1004.81
 361.47 8.36596 1089.72
 360.419 9.25319 1186.28
 359.374 10.3143 1296.84
 358.336 11.605 1424.47
 357.303 13.207 1573.15
 356.276 15.2445 1748.25
 355.255 17.9127 1957.07
 354.24 21.5306 2209.77
 353.231 26.636 2520.57
 352.228 34.1491 2908.87
 351.23 45.5839 3397.16
 350.238 62.9159 3993.91
 349.251 86.3303 4630.99
 348.27 107.911 5081.22
 347.295 114.032 5180.3
 346.324 106.45 5247.31
 345.36 97.6654 5648.11
 344.4 93.5317 6429.69
 343.446 94.4674 7545.5
 342.498 99.457 8960.5
 341.554 107.006 10619.5
 340.616 114.743 12363.3
 339.683 119.159 13781.2
 338.754 117.636 14207.5
 337.831 110.883 13414.3
 336.913 99.292 11941.7
 336 81.8786 10250.7
 335.092 62.2054 8406.71
 334.189 45.6281 6578.66
 333.291 33.4199 5013.29
 332.397 25.0506 3826.68
 331.508 20.3647 3090.83
 330.624 19.916 2912.44
 329.745 23.5935 3284.42
 328.87 27.9953 3749.2
 328 29.289 3784.02
 327.135 28.1193 3459.88
 326.274 26.481 3066.43
 325.418 24.2269 2735.09
 324.566 20.5882 2454.64
 323.718 16.7545 2209.8
 322.875 13.7141 1966.22
 322.037 11.4089 1711.56
 321.202 9.60662 1473.28
 320.372 8.15237 1264.84
 319.547 6.94727 1085.56
 318.725 5.92805 931.534
 317.908 5.06017 800.883
 317.095 4.34282 697.114
 316.286 3.82956 631.581
 315.481 3.6673 623.134
 314.681 3.97667 681.055
 313.884 4.42178 753.207
 313.091 4.67826 786.982
 312.303 4.93982 811.16
 311.518 5.11084 822.946
 310.737 4.98666 798.45
 309.96 4.64034 744.601
