 Energy(eV)     Sca_U     Sca_D
 495.937 7.86027 1517.18
 493.961 8.03183 1556.38
 492.001 8.20874 1596.82
 490.056 8.39126 1638.54
 488.127 8.57967 1681.6
 486.212 8.77428 1726.06
 484.313 8.97542 1771.98
 482.429 9.18344 1819.41
 480.559 9.39871 1868.43
 478.703 9.62162 1919.11
 476.862 9.8526 1971.51
 475.035 10.0921 2025.72
 473.222 10.3406 2081.82
 471.423 10.5987 2139.89
 469.637 10.8669 2200.02
 467.865 11.1457 2262.32
 466.106 11.436 2326.88
 464.36 11.7382 2393.81
 462.627 12.0533 2463.23
 460.908 12.382 2535.26
 459.201 12.7251 2610.02
 457.506 13.0837 2687.66
 455.824 13.4588 2768.32
 454.154 13.8514 2852.16
 452.497 14.2627 2939.33
 450.851 14.6942 3030.02
 449.218 15.147 3124.42
 447.596 15.6229 3222.71
 445.986 16.1235 3325.13
 444.388 16.6505 3431.89
 442.801 17.206 3543.23
 441.225 17.7922 3659.43
 439.66 18.4114 3780.76
 438.107 19.0662 3907.51
 436.564 19.7596 4040.02
 435.032 20.4945 4178.62
 433.511 21.2746 4323.69
 432 22.1035 4475.63
 430.5 22.9855 4634.87
 429.011 23.9253 4801.88
 427.532 24.9281 4977.17
 426.062 25.9994 5161.26
 424.603 27.1457 5354.76
 423.154 28.3741 5558.3
 421.715 29.6924 5772.58
 420.285 31.1096 5998.34
 418.865 32.6354 6236.41
 417.455 34.281 6487.68
 416.054 36.0589 6753.12
 414.663 37.9831 7033.78
 413.28 40.0696 7330.84
 411.907 42.3363 7645.55
 410.544 44.8037 7979.32
 409.189 47.495 8333.67
 407.843 50.4369 8710.27
 406.505 53.6594 9110.98
 405.177 57.1976 9537.83
 403.857 61.0912 9993.07
 402.546 65.3863 10479.2
 401.243 70.1361 10998.9
 399.949 75.4023 11555.2
 398.663 81.2565 12151.6
 397.385 87.7821 12791.6
 396.115 95.0766 13479.5
 394.854 103.254 14219.8
 393.6 112.449 15017.6
 392.355 122.819 15878.5
 391.117 134.55 16808.7
 389.887 147.862 17815
 388.665 163.017 18905
 387.45 180.322 20086.9
 386.243 200.145 21369.7
 385.044 222.918 22762.9
 383.852 249.154 24276.8
 382.667 279.458 25922.2
 381.49 314.536 27709.8
 380.319 355.209 29650.5
 379.156 402.417 31754.4
 378 457.213 34030.2
 376.851 520.747 36484.6
 375.71 594.218 39121.5
 374.574 678.795 41941.5
 373.446 775.491 44942.4
 372.325 884.981 48120.9
 371.21 1007.38 51476.3
 370.102 1142.02 55014.7
 369 1287.2 58747.9
 367.905 1440.02 62670.5
 366.817 1596 66676.1
 365.735 1748.09 70364.4
 364.659 1884.53 72784.5
 363.59 1988.04 72546.7
 362.527 2042.54 68943.6
 361.47 2046.04 63193.9
 360.419 2011.22 57647.7
 359.374 1952.2 53954.8
 358.336 1876.43 52580.6
 357.303 1785.78 53321.1
 356.276 1679.68 55745
 355.255 1557.16 59354.6
 354.24 1418.25 63608.6
 353.231 1264.89 67926.6
 352.228 1101.63 71728
 351.23 935.647 74509.5
 350.238 776.158 75938.5
 349.251 633.417 75919.3
 348.27 518.113 74601.3
 347.295 441.236 72324.1
 346.324 411.202 69491.7
 345.36 418.565 66328.8
 344.4 418.017 62582.7
 343.446 371.533 57844
 342.498 297.223 52357.7
 341.554 225.679 46692.4
 340.616 168.881 41172.8
 339.683 127.25 35914.1
 338.754 98.1428 31006.9
 337.831 78.8881 26651.2
 336.913 67.3265 23165.6
 336 61.8895 20759.6
 335.092 62.1595 19418.6
 334.189 69.4708 19427.9
 333.291 88.3326 21175.9
 332.397 127.296 23437.8
 331.508 186.216 25193.1
 330.624 240.009 27662.9
 329.745 255.232 31193.7
 328.87 231.306 34236.9
 328 191.51 34942.3
 327.135 152.382 33269.2
 326.274 120.145 30526.9
 325.418 95.3357 27647
 324.566 76.5506 24971.6
 323.718 62.23 22568
 322.875 51.1348 20413.9
 322.037 42.3527 18465.3
 321.202 35.1975 16680.4
 320.372 29.0872 15031.6
 319.547 23.4232 13526
 318.725 17.698 12240.6
 317.908 12.4543 11320.6
 317.095 9.69102 10939.9
 316.286 10.7543 11285.2
 315.481 13.7035 12041
 314.681 15.3057 12385.4
 313.884 15.4968 12236.3
 313.091 15.1321 11928
 312.303 14.717 11628.5
 311.518 14.3122 11313.3
 310.737 13.4177 10853.3
 309.96 12.1098 10325.8
