 Energy(eV)     Sca_U     Sca_D
 495.937 23.3425 303.262
 493.961 23.8712 310.522
 492.001 24.4129 317.98
 490.056 24.968 325.645
 488.127 25.537 333.523
 486.212 26.1202 341.623
 484.313 26.7182 349.953
 482.429 27.3315 358.521
 480.559 27.9605 367.337
 478.703 28.6058 376.41
 476.862 29.2681 385.751
 475.035 29.9478 395.369
 473.222 30.6456 405.276
 471.423 31.3621 415.483
 469.637 32.098 426.003
 467.865 32.8541 436.848
 466.106 33.6311 448.033
 464.36 34.4297 459.57
 462.627 35.2508 471.476
 460.908 36.0953 483.766
 459.201 36.964 496.457
 457.506 37.858 509.566
 455.824 38.7781 523.112
 454.154 39.7255 537.116
 452.497 40.7013 551.597
 450.851 41.7067 566.578
 449.218 42.7429 582.082
 447.596 43.8111 598.134
 445.986 44.9129 614.761
 444.388 46.0495 631.99
 442.801 47.2226 649.852
 441.225 48.4339 668.377
 439.66 49.6849 687.599
 438.107 50.9775 707.555
 436.564 52.3137 728.282
 435.032 53.6956 749.82
 433.511 55.1251 772.215
 432 56.6048 795.511
 430.5 58.137 819.758
 429.011 59.7244 845.011
 427.532 61.3696 871.325
 426.062 63.0758 898.763
 424.603 64.8459 927.389
 423.154 66.6834 957.275
 421.715 68.592 988.496
 420.285 70.5753 1021.14
 418.865 72.6376 1055.28
 417.455 74.7832 1091.03
 416.054 77.0169 1128.48
 414.663 79.3437 1167.75
 413.28 81.7691 1208.96
 411.907 84.299 1252.24
 410.544 86.9395 1297.74
 409.189 89.6976 1345.6
 407.843 92.5806 1396.01
 406.505 95.5964 1449.16
 405.177 98.7536 1505.23
 403.857 102.061 1564.47
 402.546 105.53 1627.11
 401.243 109.171 1693.43
 399.949 112.995 1763.73
 398.663 117.015 1838.35
 397.385 121.247 1917.65
 396.115 125.705 2002.04
 394.854 130.406 2091.98
 393.6 135.369 2187.98
 392.355 140.614 2290.61
 391.117 146.165 2400.53
 389.887 152.045 2518.44
 388.665 158.282 2645.18
 387.45 164.907 2781.68
 386.243 171.954 2929
 385.044 179.46 3088.35
 383.852 187.466 3261.13
 382.667 196.021 3448.94
 381.49 205.177 3653.67
 380.319 214.993 3877.47
 379.156 225.536 4122.89
 378 236.882 4392.94
 376.851 249.117 4691.15
 375.71 262.341 5021.76
 374.574 276.665 5389.84
 373.446 292.219 5801.52
 372.325 309.153 6264.25
 371.21 327.64 6787.15
 370.102 347.882 7381.46
 369 370.114 8061.15
 367.905 394.61 8843.57
 366.817 421.689 9750.42
 365.735 451.718 10808.7
 364.659 485.111 12051.7
 363.59 522.315 13519.1
 362.527 563.752 15255.7
 361.47 609.701 17304.6
 360.419 660.004 19690.2
 359.374 713.469 22381.8
 358.336 766.75 25229.1
 357.303 812.551 27887.8
 356.276 837.494 29800.6
 355.255 821.92 30297.1
 354.24 752.687 28751
 353.231 666.885 25138.6
 352.228 651.691 21145.9
 351.23 728.158 18798.1
 350.238 852.445 18496.4
 349.251 993.42 19885.6
 348.27 1140.96 22700
 347.295 1292.07 26797.6
 346.324 1442.05 31903
 345.36 1578.45 37216.5
 344.4 1678.81 41201.4
 343.446 1719.39 42272.2
 342.498 1692.78 40209.8
 341.554 1614.01 36457.6
 340.616 1512.72 32891.8
 339.683 1421.27 30315.3
 338.754 1338.56 27754.8
 337.831 1225.94 24395.8
 336.913 1075.29 20677
 336 907.278 17126.8
 335.092 746.16 14017.3
 334.189 621.617 11583.3
 333.291 572.979 10144.9
 332.397 621.623 9853.37
 331.508 716.267 10186.2
 330.624 770.31 10383.7
 329.745 759.44 10406.2
 328.87 710.487 10611.6
 328 651.545 11094
 327.135 597.91 11592.5
 326.274 560.872 11732.4
 325.418 541.519 11429.3
 324.566 515.255 10594.6
 323.718 473.315 9464.14
 322.875 425.195 8335.69
 322.037 377.901 7322.23
 321.202 333.845 6434.6
 320.372 293.409 5655.51
 319.547 256.425 4967.19
 318.725 222.992 4363.78
 317.908 194.284 3864.51
 317.095 173.191 3521.7
 316.286 164.129 3405.98
 315.481 171.81 3566.15
 314.681 189.943 3861.76
 313.884 201.493 3998.9
 313.091 208.617 4000.07
 312.303 216.568 3979.45
 311.518 219.013 3912.22
 310.737 212.73 3764.14
 309.96 199.9 3546.07
