 Energy(eV)     Sca_U     Sca_D
 495.937 1123.99 152461
 494.453 1175.36 152945
 492.979 1226.59 153038
 491.513 1277.66 152770
 490.056 1328.57 152180
 488.607 1379.42 151311
 487.168 1430.35 150208
 485.736 1481.56 148920
 484.313 1533.29 147494
 482.898 1585.84 145974
 481.492 1639.53 144405
 480.093 1694.73 142828
 478.703 1751.82 141280
 477.321 1811.21 139794
 475.947 1873.33 138404
 474.58 1938.65 137136
 473.222 2007.63 136017
 471.871 2080.79 135072
 470.528 2158.67 134322
 469.193 2241.82 133789
 467.865 2330.88 133495
 466.544 2426.51 133460
 465.231 2529.44 133707
 463.926 2640.48 134258
 462.627 2760.54 135137
 461.336 2890.64 136371
 460.052 3031.94 137988
 458.776 3185.75 140022
 457.506 3353.56 142506
 456.243 3537.06 145480
 454.988 3738.1 148982
 453.739 3958.68 153054
 452.497 4200.8 157734
 451.262 4466.23 163051
 450.033 4756.05 169015
 448.811 5069.85 175597
 447.596 5404.65 182710
 446.388 5753.25 190171
 445.185 6102.47 197664
 443.99 6431.71 204721
 442.801 6713.01 210721
 441.618 6914.07 214967
 440.441 7004.81 216826
 439.271 6965.83 215907
 438.107 6795.22 212195
 436.949 6509.53 206061
 435.797 6138.43 198139
 434.651 5716.1 189143
 433.511 5273.64 179711
 432.377 4834.86 170325
 431.249 4415.5 161304
 430.127 4024.39 152834
 429.011 3665.35 145013
 427.9 3338.97 137892
 426.796 3043.91 131510
 425.697 2777.82 125918
 424.603 2537.86 121197
 423.515 2320.92 117464
 422.433 2123.79 114878
 421.356 1943.17 113608
 420.285 1775.81 113776
 419.219 1618.8 115355
 418.159 1470.19 118045
 417.104 1329.57 121222
 416.054 1198.14 124055
 415.01 1077.64 125782
 413.97 969.019 125981
 412.936 871.701 124653
 411.907 784.115 122104
 410.884 704.585 118766
 409.865 631.904 115056
 408.851 565.445 111323
 407.843 505.058 107840
 406.839 450.973 104825
 405.84 403.737 102460
 404.846 364.189 100900
 403.857 333.384 100266
 402.873 312.415 100622
 401.893 302.077 101942
 400.919 302.397 104067
 399.949 312.152 106703
 398.984 328.654 109452
 398.023 348.059 111903
 397.067 366.23 113730
 396.115 379.841 114754
 395.169 387.133 114947
 394.226 387.973 114390
 393.288 383.33 113214
 392.355 374.607 111567
 391.426 363.163 109581
 390.501 350.1 107369
 389.581 336.219 105020
 388.665 322.074 102601
 387.753 308.028 100160
 386.846 294.311 97731.6
 385.943 281.065 95338.6
 385.044 268.37 92995.7
 384.149 256.267 90711.7
 383.259 244.771 88490.9
 382.372 233.88 86334.9
 381.49 223.583 84243
 380.611 213.861 82213.2
 379.737 204.693 80242.7
 378.867 196.057 78327.8
 378 187.931 76464.6
 377.138 180.294 74649
 376.28 173.127 72876.4
 375.425 166.415 71142.3
 374.574 160.145 69441.9
 373.728 154.309 67770.6
 372.885 148.904 66123.2
 372.045 143.933 64494.6
 371.21 139.408 62879.7
 370.378 135.354 61273.1
 369.55 131.81 59670.1
 368.726 128.839 58067.2
 367.905 126.537 56463.3
 367.088 125.052 54864
 366.275 124.598 53287.1
 365.465 125.468 51774.9
 364.659 127.948 50407
 363.857 131.957 49296.2
 363.058 136.182 48511.7
 362.262 137.512 47959
 361.47 132.892 47477.1
 360.681 122.962 47100.4
 359.896 112.943 47098.7
 359.114 107.725 47888
 358.336 108.176 49596.9
 357.561 113.406 51626.2
 356.789 119.767 53175.9
 356.021 120.88 53916.7
 355.255 114.889 53894.2
 354.494 104.955 53296
 353.735 94.1639 52314.6
 352.98 84.0457 51100.7
 352.228 75.4053 49790.9
 351.479 69.1729 48552.9
 350.733 66.283 47579.9
 349.991 66.2155 46966.2
 349.251 66.6217 46570
 348.515 65.5419 46123.4
 347.782 62.8668 45486.4
 347.051 59.3994 44669.8
 346.324 55.7516 43728
 345.6 52.1684 42704.3
 344.879 48.7275 41631.6
 344.161 45.5556 40557.8
 343.446 42.9968 39590.6
 342.734 41.4739 38915.9
 342.025 40.9599 38673
 341.319 41.04 38769.8
 340.616 41.3692 38970.3
 339.915 41.5958 39104.1
 339.218 41.3157 39068.1
 338.523 40.4208 38810.7
 337.831 39.1985 38367.6
 337.142 37.9466 37817.5
 336.456 36.8017 37232.1
 335.773 35.827 36662.3
 335.092 35.0597 36131.9
 334.414 34.4563 35635.4
 333.739 33.9292 35150
 333.067 33.4404 34657
 332.397 32.9918 34158.3
 331.73 32.5835 33665.2
 331.066 32.2056 33182.2
 330.404 31.8545 32707.5
 329.745 31.5335 32240.9
 329.089 31.2446 31783.2
 328.435 30.9881 31334.9
 327.784 30.7637 30896
 327.135 30.5699 30466.9
 326.489 30.405 30047.5
 325.845 30.2672 29637.7
 325.204 30.1547 29237.4
 324.566 30.066 28846.2
 323.93 29.9996 28463.9
 323.296 29.9541 28090
 322.665 29.9282 27724.2
 322.037 29.9208 27366.1
 321.411 29.9307 27015.6
 320.787 29.9569 26672.3
 320.166 29.9984 26336
 319.547 30.0544 26006.4
 318.93 30.1239 25683.3
 318.316 30.206 25366.5
 317.704 30.3 25055.7
 317.095 30.4051 24750.8
 316.488 30.5204 24451.6
 315.883 30.6454 24157.9
 315.281 30.7793 23869.5
 314.681 30.9213 23586.3
 314.083 31.071 23308.1
 313.487 31.2276 23034.8
 312.894 31.3905 22766.2
 312.303 31.5592 22502.2
 311.714 31.7332 22242.7
 311.127 31.9118 21987.5
 310.543 32.0945 21736.6
 309.96 32.2809 21489.8
