 Energy(eV)     Sca_U     Sca_D
 495.937 577.149 47482.8
 493.961 591.455 50063
 492.001 606.827 52880.9
 490.056 623.526 55967.5
 488.127 641.877 59356.4
 486.212 662.278 63082.8
 484.313 685.215 67181.7
 482.429 711.26 71683.7
 480.559 741.067 76610.3
 478.703 775.35 81965.3
 476.862 814.832 87724.5
 475.035 860.158 93821.5
 473.222 911.763 100134
 471.423 969.701 106471
 469.637 1033.45 112570
 467.865 1101.77 118111
 466.106 1172.63 122750
 464.36 1243.41 126172
 462.627 1311.22 128158
 460.908 1373.4 128630
 459.201 1427.99 127672
 457.506 1474.05 125509
 455.824 1511.62 122453
 454.154 1541.57 118844
 452.497 1565.27 114999
 450.851 1584.28 111184
 449.218 1600.09 107599
 447.596 1614.01 104382
 445.986 1627.09 101622
 444.388 1640.11 99370.1
 442.801 1653.63 97651.9
 441.225 1668.02 96480.6
 439.66 1683.51 95864.2
 438.107 1700.23 95812.6
 436.564 1718.22 96343.4
 435.032 1737.47 97484.8
 433.511 1757.82 99278.2
 432 1778.95 101777
 430.5 1800.18 105045
 429.011 1820.24 109142
 427.532 1836.79 114106
 426.062 1845.86 119911
 424.603 1841.18 126390
 423.154 1813.91 133100
 421.715 1754.49 139104
 420.285 1659.21 142786
 418.865 1541.07 142209
 417.455 1430.76 136512
 416.054 1353.36 127078
 414.663 1307.6 116383
 413.28 1276.29 106121
 411.907 1244.68 96851
 410.544 1205.64 88553.6
 409.189 1156.97 81060.4
 407.843 1098.36 74215.7
 406.505 1029.74 67918.1
 405.177 950.672 62143.3
 403.857 860.362 56991
 402.546 758.526 52781.4
 401.243 647.972 50202.7
 399.949 541.512 50352.7
 398.663 473.636 54088.1
 397.385 494.97 60267.8
 396.115 621.581 65358.6
 394.854 810.54 66834.8
 393.6 1017.17 65171.6
 392.355 1233.27 62083.3
 391.117 1475.09 59040
 389.887 1763.2 57128.9
 388.665 2105.08 57244.4
 387.45 2473.76 59978.8
 386.243 2793.1 65068.5
 385.044 2965.26 70957
 383.852 2943.29 75524.5
 382.667 2766.18 77558.4
 381.49 2513.29 77194.4
 380.319 2248.69 75220.6
 379.156 2005.47 72401
 378 1794.46 69248.4
 376.851 1615.63 66049.9
 375.71 1464.9 62946.8
 374.574 1337.4 59998.9
 373.446 1228.65 57223.3
 372.325 1134.93 54616.3
 371.21 1053.23 52164.6
 370.102 981.132 49850.7
 369 916.734 47655.8
 367.905 858.47 45560.4
 366.817 805.038 43544.8
 365.735 755.31 41588.8
 364.659 708.254 39670.8
 363.59 662.871 37768.5
 362.527 618.14 35861.4
 361.47 573.026 33942
 360.419 526.677 32048.6
 359.374 479.052 30304.4
 358.336 431.746 28782.3
 357.303 390.613 27276.8
 356.276 369.117 26070.4
 355.255 376.68 26397.4
 354.24 404.06 28605.5
 353.231 425.206 30799.9
 352.228 438.237 31635.4
 351.23 456.86 31403
 350.238 483.399 30569.1
 349.251 512.857 29478.3
 348.27 540.832 28524.3
 347.295 550.213 27988.2
 346.324 530.065 27650.8
 345.36 498.937 27103.5
 344.4 470.922 26296.4
 343.446 448.357 25359.3
 342.498 430.34 24457.4
 341.554 414.64 23836.2
 340.616 399.075 23657.7
 339.683 386.506 23712.3
 338.754 377.714 23671.8
 337.831 369.75 23390.3
 336.913 360.585 22901.6
 336 350.516 22321.1
 335.092 340.713 21741.2
 334.189 331.882 21210.1
 333.291 323.469 20722.6
 332.397 314.73 20243.1
 331.508 305.941 19767.1
 330.624 297.379 19304.4
 329.745 289.045 18853.3
 328.87 280.979 18414.3
 328 273.204 17989
 327.135 265.714 17577.9
 326.274 258.497 17181.3
 325.418 251.542 16798.8
 324.566 244.837 16430.1
 323.718 238.367 16074.3
 322.875 232.117 15730.7
 322.037 226.074 15398.7
 321.202 220.228 15077.5
 320.372 214.568 14766.7
 319.547 209.087 14465.7
 318.725 203.777 14174
 317.908 198.629 13891.2
 317.095 193.637 13616.8
 316.286 188.795 13350.5
 315.481 184.097 13091.9
 314.681 179.538 12840.7
 313.884 175.113 12596.5
 313.091 170.816 12359.1
 312.303 166.644 12128.1
 311.518 162.592 11903.4
 310.737 158.657 11684.7
 309.96 154.834 11471.7
