 Energy(eV)     Sca_U     Sca_D
 495.937 2130.38 151454
 493.961 2249.76 151961
 492.001 2366.98 151791
 490.056 2482 151026
 488.127 2595.13 149768
 486.212 2707.06 148125
 484.313 2818.76 146208
 482.429 2931.44 144127
 480.559 3046.5 141982
 478.703 3165.46 139866
 476.862 3289.95 137860
 475.035 3421.68 136038
 473.222 3562.43 134462
 471.423 3714.05 133191
 469.637 3878.5 132276
 467.865 4057.86 131768
 466.106 4254.39 131716
 464.36 4470.56 132171
 462.627 4709.19 133188
 460.908 4973.48 134829
 459.201 5267.19 137162
 457.506 5594.69 140265
 455.824 5961.12 144227
 454.154 6372.28 149141
 452.497 6834.29 155100
 450.851 7352.4 162175
 449.218 7928.5 170372
 447.596 8556.1 179559
 445.986 9212.19 189343
 444.388 9847.17 198932
 442.801 10378.5 207056
 441.225 10700.5 212135
 439.66 10719.3 212806
 438.107 10399.9 208591
 436.564 9788.42 200189
 435.032 8988.1 189092
 433.511 8110.67 176874
 432 7241.51 164717
 430.5 6430.65 153310
 429.011 5700.04 142978
 427.532 5054.37 133863
 426.062 4489.59 126064
 424.603 3997.92 119736
 423.154 3570.27 115149
 421.715 3196.86 112680
 420.285 2867.16 112685
 418.865 2570.33 115151
 417.455 2297.77 119236
 416.054 2046.38 123207
 414.663 1817.78 125249
 413.28 1612.68 124541
 411.907 1428.4 121460
 410.544 1261.76 116970
 409.189 1111.67 112027
 407.843 979.03 107366
 406.505 865.995 103525
 405.177 775.622 100923
 403.857 711.638 99887.3
 402.546 677.474 100590
 401.243 674.073 102912
 399.949 696.933 106318
 398.663 734.543 109922
 397.385 770.951 112795
 396.115 792.338 114342
 394.854 792.794 114434
 393.6 774.511 113277
 392.355 743.551 111198
 391.117 705.864 108517
 389.887 665.682 105489
 388.665 625.55 102297
 387.45 586.839 99064.4
 386.243 550.212 95866.5
 385.044 515.93 92748.1
 383.852 484.033 89732.6
 382.667 454.451 86829.3
 381.49 427.054 84039.5
 380.319 401.69 81359
 379.156 378.203 78780.8
 378 356.439 76296.1
 376.851 336.254 73895.1
 375.71 317.516 71567.4
 374.574 300.105 69302
 373.446 283.912 67087.6
 372.325 268.842 64912.4
 371.21 254.812 62764.2
 370.102 241.758 60630.9
 369 229.652 58501.7
 367.905 218.536 56371.3
 366.817 208.635 54250.5
 365.735 200.629 52192.1
 364.659 196.18 50338.8
 363.59 197.888 48934.6
 362.527 204.669 48062.4
 361.47 204.707 47405.3
 360.419 191.033 46967
 359.374 175.894 47448.3
 358.336 167.148 49538
 357.303 170.724 52168.5
 356.276 182.318 53700.4
 355.255 183.073 53826
 354.24 171.366 52933.2
