 Energy(eV)     Sca_U     Sca_D
 495.937 316.921 47743
 494.453 332.558 49652
 492.979 349.217 51690.2
 491.513 367.001 53870
 490.056 386.027 56205
 488.607 406.432 58709.6
 487.168 428.366 61398.6
 485.736 452.003 64287.1
 484.313 477.535 67389.4
 482.898 505.175 70718.3
 481.492 535.15 74283.7
 480.093 567.703 78090.8
 478.703 603.075 82137.6
 477.321 641.497 86412.5
 475.947 683.167 90890.5
 474.58 728.216 95529.8
 473.222 776.682 100269
 471.871 828.459 105023
 470.528 883.263 109687
 469.193 940.594 114131
 467.865 999.721 118213
 466.544 1059.69 121788
 465.231 1119.39 124719
 463.926 1177.6 126892
 462.627 1233.13 128236
 461.336 1284.96 128725
 460.052 1332.31 128388
 458.776 1374.72 127299
 457.506 1412.1 125571
 456.243 1444.69 123341
 454.988 1472.99 120751
 453.739 1497.74 117944
 452.497 1519.78 115045
 451.262 1540.03 112163
 450.033 1559.43 109386
 448.811 1578.9 106781
 447.596 1599.33 104397
 446.388 1621.59 102268
 445.185 1646.5 100418
 443.99 1674.89 98858.3
 442.801 1707.56 97598
 441.618 1745.35 96640.7
 440.441 1789.1 95989
 439.271 1839.71 95645.6
 438.107 1898.11 95614.7
 436.949 1965.33 95903
 435.797 2042.43 96520.8
 434.651 2130.57 97482.1
 433.511 2230.95 98805.1
 432.377 2344.84 100512
 431.249 2473.49 102627
 430.127 2618.13 105177
 429.011 2779.85 108183
 427.9 2959.48 111657
 426.796 3157.34 115595
 425.697 3372.88 119952
 424.603 3603.88 124627
 423.515 3844.85 129420
 422.433 4084.23 133980
 421.356 4300.12 137753
 420.285 4456.66 139989
 419.219 4507.62 139899
 418.159 4414.28 137034
 417.104 4171.37 131645
 416.054 3815.84 124615
 415.01 3406.21 116970
 413.97 2993.92 109439
 412.936 2610.19 102365
 411.907 2268.24 95827.5
 410.884 1970.45 89791.4
 409.865 1714.07 84185.7
 408.851 1494.57 78942.2
 407.843 1307.18 74006.9
 406.839 1147.51 69344.5
 405.84 1011.76 64942.6
 404.846 896.787 60821.6
 403.857 799.982 57051.4
 402.873 719.107 53781.4
 401.893 651.965 51279
 400.919 595.929 49960.7
 399.949 547.42 50346.8
 398.984 501.747 52810.9
 398.023 454.2 57079.8
 397.067 402.684 61906.7
 396.115 349.539 65630.6
 395.169 299.731 67279.2
 394.226 257.412 66947
 393.288 224.61 65312.7
 392.355 201.982 63114.6
 391.426 189.871 60954
 390.501 188.823 59307.1
 389.581 199.532 58581
 388.665 222.25 59127.2
 387.753 255.692 61169.5
 386.846 295.867 64647.4
 385.943 335.885 69067.9
 385.044 367.837 73554.4
 384.149 386.056 77178.3
 383.259 389.239 79355.7
 382.372 379.874 79992.9
 381.49 362.089 79345.6
 380.611 339.799 77793.2
 379.737 315.896 75685.8
 378.867 292.196 73287
 378 269.696 70773.2
 377.138 248.86 68253
 376.28 229.838 65788.6
 375.425 212.609 63412.5
 374.574 197.065 61139.2
 373.728 183.061 58972.2
 372.885 170.442 56909.1
 372.045 159.056 54943.9
 371.21 148.765 53069.1
 370.378 139.445 51276.2
 369.55 130.987 49556.7
 368.726 123.299 47901.7
 367.905 116.301 46302.6
 367.088 109.927 44750.4
 366.275 104.123 43236.3
 365.465 98.8453 41751.1
 364.659 94.0603 40285
 363.857 89.7447 38828.2
 363.058 85.8794 37371.2
 362.262 82.4368 35906.9
 361.47 79.3376 34435.7
 360.681 76.3334 32976.3
 359.896 72.7424 31578.1
 359.114 67.1364 30307
 358.336 57.7668 29156.3
 357.561 44.4102 28012
 356.789 29.9478 26916.8
 356.021 19.1853 26306.9
 355.255 14.9596 26759.1
 354.494 17.2572 28338.9
 353.735 24.6572 30232.2
 352.98 33.9343 31535.5
 352.228 41.28 32032.3
 351.479 45.2037 31937.4
 350.733 46.3292 31463.4
 349.991 45.8292 30750.8
 349.251 44.8 29946.4
 348.515 44.2175 29219.1
 347.782 44.5081 28708.4
 347.051 44.9247 28407.4
 346.324 44.4004 28136.5
 345.6 42.8537 27732.2
 344.879 40.8099 27168.6
 344.161 38.6674 26494.8
 343.446 36.5919 25771.1
 342.734 34.628 25067.4
 342.025 32.749 24484.5
 341.319 30.8505 24131.4
 340.616 28.9619 24027.8
 339.915 27.4655 24059
 339.218 26.6635 24072.9
 338.523 26.3641 23974.8
 337.831 26.0621 23734
 337.142 25.4814 23374.5
 336.456 24.6717 22947
 335.773 23.7564 22497.6
 335.092 22.8264 22059.1
 334.414 21.9492 21649.7
 333.739 21.1505 21269.8
 333.067 20.4085 20903.8
 332.397 19.7029 20538.1
 331.73 19.0327 20174
 331.066 18.3963 19817.3
 330.404 17.7852 19468.1
 329.745 17.194 19125.2
 329.089 16.6234 18789.2
 328.435 16.0741 18460.9
 327.784 15.5463 18140.6
 327.135 15.0397 17828.6
 326.489 14.5541 17524.8
 325.845 14.0887 17229.2
 325.204 13.6426 16941.6
 324.566 13.2151 16661.7
 323.93 12.8052 16389.2
 323.296 12.4122 16123.8
 322.665 12.0353 15865.2
 322.037 11.6738 15613.1
 321.411 11.327 15367.2
 320.787 10.9943 15127.3
 320.166 10.6753 14893.1
 319.547 10.3693 14664.4
 318.93 10.0759 14441.1
 318.316 9.7946 14222.9
 317.704 9.52499 14009.7
 317.095 9.26664 13801.2
 316.488 9.01918 13597.3
 315.883 8.78222 13397.9
 315.281 8.55542 13202.8
 314.681 8.33844 13011.9
 314.083 8.13096 12825
 313.487 7.93267 12642
 312.894 7.74329 12462.8
 312.303 7.56251 12287.2
 311.714 7.39009 12115.2
 311.127 7.22575 11946.7
 310.543 7.06925 11781.5
 309.96 6.92033 11619.6
