 Energy(eV)     Sca_U     Sca_D
 495.937 1822.7 151762
 493.961 1876.73 152334
 492.001 1923.63 152234
 490.056 1963.31 151545
 488.127 1995.97 150367
 486.212 2022.05 148810
 484.313 2042.16 146985
 482.429 2057.02 145001
 480.559 2067.38 142961
 478.703 2073.99 140957
 476.862 2077.56 139073
 475.035 2078.71 137381
 473.222 2077.99 135947
 471.423 2075.85 134829
 469.637 2072.64 134082
 467.865 2068.6 133757
 466.106 2063.87 133906
 464.36 2058.5 134583
 462.627 2052.39 135845
 460.908 2045.36 137757
 459.201 2037.08 140392
 457.506 2027.09 143833
 455.824 2014.78 148173
 454.154 1999.4 153514
 452.497 1980.06 159955
 450.851 1955.81 167572
 449.218 1925.71 176375
 447.596 1889.09 186226
 445.986 1845.86 196709
 444.388 1796.9 206982
 442.801 1744.33 215690
 441.225 1691.17 221145
 439.66 1640.12 221885
 438.107 1591.98 217399
 436.564 1544.94 208433
 435.032 1495.46 196584
 433.511 1439.96 183545
 432 1375.91 170583
 430.5 1302.15 158438
 429.011 1218.71 147460
 427.532 1126.75 137791
 426.062 1029 129525
 424.603 930.934 122803
 423.154 843.042 117876
 421.715 784.052 115093
 420.285 783.659 114769
 418.865 880.125 116841
 417.455 1106.64 120427
 416.054 1467.9 123785
 414.663 1926.81 125140
 413.28 2420.47 123733
 411.907 2894.46 119994
 410.544 3325.55 114906
 409.189 3719.8 109419
 407.843 4097.14 104248
 406.505 4476.79 99914.4
 405.177 4867.55 96831.3
 403.857 5260.93 95338
 402.546 5626.42 95641.2
 401.243 5913.17 97672.8
 399.949 6064.08 100951
 398.663 6041.71 104614
 397.385 5849.42 107716
 396.115 5529.03 109605
 394.854 5137.91 110089
 393.6 4726.62 109324
 392.355 4329.55 107612
 391.117 3965.45 105257
 389.887 3641.7 102513
 388.665 3358.68 99564.3
 387.45 3113.2 96538
 386.243 2900.59 93516.1
 385.044 2715.94 90548.1
 383.852 2554.7 87661.9
 382.667 2412.86 84870.9
 381.49 2287.02 82179.5
 380.319 2174.34 79586.3
 379.156 2072.46 77086.6
 378 1979.42 74673.1
 376.851 1893.58 72337.8
 375.71 1813.54 70071.4
 374.574 1738.1 67864
 373.446 1666.18 65705.3
 372.325 1596.79 63584.5
 371.21 1528.97 61490.1
 370.102 1461.71 59411
 369 1393.96 57337.4
 367.905 1324.59 55265.3
 366.817 1252.54 53206.6
 365.735 1177.42 51215.3
 364.659 1101.4 49433.6
 363.59 1032.65 48099.9
 362.527 981.942 47285.1
 361.47 931.763 46678.3
 360.419 824.095 46334
 359.374 636.129 46988.1
 358.336 458.34 49246.8
 357.303 403.756 51935.5
 356.276 451.111 53431.6
 355.255 529.617 53479.4
 354.24 612.627 52492
 353.231 698.956 50911.3
 352.228 788.32 49078
 351.23 877.453 47381
 350.238 940.822 46259.7
 349.251 941.492 45695.1
 348.27 901.835 45096.7
 347.295 859.79 44159.4
 346.324 825.451 42958.3
 345.36 797.884 41603.6
 344.4 775.79 40181.8
 343.446 757.772 38875.8
 342.498 739.028 38088.2
 341.554 717.231 38038.1
 340.616 696.052 38315.7
 339.683 677.175 38479.5
 338.754 660.303 38300.9
 337.831 642.316 37764.5
 336.913 623.058 37037.8
 336 604.267 36280.2
 335.092 587.496 35579.5
 334.189 572.249 34935.7
 333.291 556.459 34299.6
 332.397 540.165 33651.1
 331.508 524.306 33011.3
 330.624 508.989 32387.9
 329.745 494.101 31778.3
 328.87 479.7 31184.2
 328 465.815 30606.3
 327.135 452.454 30045
 326.274 439.616 29500.6
 325.418 427.288 28972.7
 324.566 415.453 28460.8
 323.718 404.087 27964.2
 322.875 393.17 27482
 322.037 382.681 27013.4
 321.202 372.602 26557.7
 320.372 362.914 26114.4
 319.547 353.604 25682.9
 318.725 344.653 25262.5
 317.908 336.049 24852.8
 317.095 327.776 24453.4
 316.286 319.822 24063.8
 315.481 312.173 23683.6
 314.681 304.816 23312.4
 313.884 297.741 22949.8
 313.091 290.934 22595.6
 312.303 284.387 22249.4
 311.518 278.087 21910.9
 310.737 272.024 21579.8
 309.96 266.189 21255.9
