 Energy(eV)     Sca_L     Sca_R
 495.937 1539.15 62.333
 493.961 1594.04 64.9382
 492.001 1651.47 67.7106
 490.056 1711.57 70.6606
 488.127 1774.53 73.7992
 486.212 1840.5 77.1378
 484.313 1909.69 80.6886
 482.429 1982.29 84.4648
 480.559 2058.53 88.4798
 478.703 2138.64 92.7482
 476.862 2222.88 97.2852
 475.035 2311.52 102.107
 473.222 2404.88 107.231
 471.423 2503.28 112.676
 469.637 2607.07 118.46
 467.865 2716.64 124.605
 466.106 2832.41 131.132
 464.36 2954.85 138.065
 462.627 3084.45 145.428
 460.908 3221.77 153.247
 459.201 3367.42 161.551
 457.506 3522.04 170.37
 455.824 3686.38 179.735
 454.154 3861.24 189.679
 452.497 4047.5 200.24
 450.851 4246.14 211.454
 449.218 4458.24 223.363
 447.596 4685.01 236.01
 445.986 4927.79 249.441
 444.388 5188.06 263.703
 442.801 5467.5 278.848
 441.225 5767.95 294.929
 439.66 6091.51 312.004
 438.107 6440.54 330.129
 436.564 6817.66 349.367
 435.032 7225.89 369.778
 433.511 7668.59 391.427
 432 8149.63 414.375
 430.5 8673.4 438.684
 429.011 9244.92 464.412
 427.532 9869.94 491.612
 426.062 10555.1 520.326
 424.603 11308 550.588
 423.154 12137.6 582.413
 421.715 13054.2 615.796
 420.285 14069.8 650.705
 418.865 15198.7 687.08
 417.455 16457.5 724.832
 416.054 17866 763.848
 414.663 19447.9 804.015
 413.28 21231.2 845.271
 411.907 23249.8 887.709
 410.544 25544.3 931.787
 409.189 28163.7 978.71
 407.843 31166.6 1031.15
 406.505 34622.1 1094.53
 405.177 38608.8 1179.27
 403.857 43208.7 1304.7
 402.546 48489.2 1505.31
 401.243 54460.6 1839.91
 399.949 60986 2401.66
 398.663 67625.7 3319.93
 397.385 73457.5 4730.03
 396.115 77087.4 6680.43
 394.854 77232 9001.67
 393.6 73805.4 11287.4
 392.355 68394.8 13106.6
 391.117 63321.7 14245.7
 389.887 60298.7 14709.2
 388.665 59835.4 14555.7
 387.45 61231.2 13799.2
 386.243 62646.1 12491.9
 385.044 61690 10943.3
 383.852 57383 9652.65
 382.667 50941.4 8779.28
 381.49 44088 8147.01
 380.319 38364.8 7640.5
 379.156 35294.8 7218.9
 378 35102.2 6697.35
 376.851 36793.6 5873.69
 375.71 40093.4 4900.56
 374.574 42797.8 4046.04
 373.446 42771.1 3396
 372.325 40626.9 2896.05
 371.21 37631.5 2494.46
 370.102 34511.9 2164.15
 369 31562.1 1889.43
 367.905 28873.5 1659.33
 366.817 26457.6 1465.37
 365.735 24297.1 1300.86
 364.659 22365.9 1160.44
 363.59 20637.2 1039.82
 362.527 19086 935.595
 361.47 17690.1 845.023
 360.419 16429.7 765.9
 359.374 15287.9 696.448
 358.336 14249.8 635.22
 357.303 13302.3 581.035
 356.276 12433.8 532.919
 355.255 11634 490.063
 354.24 10893.7 451.783
