 Energy(eV)     Sca_U     Sca_D
 495.937 323.146 11865.1
 493.961 332.719 12442.4
 492.001 342.71 13054.7
 490.056 353.143 13704.6
 488.127 364.04 14394.6
 486.212 375.423 15127.7
 484.313 387.315 15907
 482.429 399.738 16735.7
 480.559 412.713 17617.4
 478.703 426.261 18555.8
 476.862 440.397 19555
 475.035 455.134 20619.2
 473.222 470.481 21753.1
 471.423 486.438 22961.5
 469.637 502.995 24249.7
 467.865 520.132 25623.2
 466.106 537.811 27088.2
 464.36 555.976 28651.4
 462.627 574.547 30320.3
 460.908 593.411 32103.4
 459.201 612.422 34011
 457.506 631.388 36055.5
 455.824 650.066 38252.8
 454.154 668.151 40623.1
 452.497 685.269 43193.2
 450.851 700.961 45998.7
 449.218 714.676 49085.4
 447.596 725.754 52510.9
 445.986 733.422 56341.3
 444.388 736.805 60640.3
 442.801 734.994 65439.2
 441.225 727.26 70676.7
 439.66 713.52 76098.2
 438.107 695.172 81140.8
 436.564 676.013 84910.3
 435.032 662.296 86432.7
 433.511 660.779 85199.2
 432 675.479 81594.1
 430.5 706.014 76715.6
 429.011 748.95 71758.6
 427.532 800.239 67547.7
 426.062 856.645 64455
 424.603 915.905 62532.7
 423.154 976.355 61664.7
 421.715 1036.51 61667.2
 420.285 1094.84 62340
 418.865 1149.63 63491.5
 417.455 1199.09 64950.6
 416.054 1241.38 66576
 414.663 1274.82 68264.1
 413.28 1297.99 69957.9
 411.907 1309.9 71653.8
 410.544 1310.08 73402.7
 409.189 1298.67 75293.3
 407.843 1276.39 77389.7
 406.505 1244.16 79564.1
 405.177 1202.77 81194.2
 403.857 1154.97 81001.5
 402.546 1113.1 77880.1
 401.243 1093.23 72374.4
 399.949 1086.86 66059.9
 398.663 1070.38 59899.7
 397.385 1033.3 54193.2
 396.115 977.711 48971.4
 394.854 909.315 44163.5
 393.6 833.849 39669.8
 392.355 757.272 35403.9
 391.117 686.822 31323
 389.887 630.548 27460.2
 388.665 591.858 23955.2
 387.45 560.68 21086.5
 386.243 516.743 19412.8
 385.044 452.787 20000.6
 383.852 392.385 23551.4
 382.667 365.189 27837.5
 381.49 364.223 29613.5
 380.319 378.369 29301.7
 379.156 427.008 29303.7
 378 542.271 31536.3
 376.851 732.489 36398
 375.71 946.425 42097.7
 374.574 1091.26 45755.9
 373.446 1122.98 46164.6
 372.325 1073.8 44305.8
 371.21 990.772 41522.5
 370.102 901.626 38589.9
 369 817.535 35817.6
 367.905 741.67 33291.4
 366.817 674.11 31010.7
 365.735 613.933 28946.9
 364.659 560.008 27065.3
 363.59 511.25 25332.1
 362.527 466.688 23716.5
 361.47 425.463 22190.3
 360.419 386.809 20727.3
 359.374 350.047 19304.6
 358.336 314.642 17908.4
 357.303 280.431 16554.8
 356.276 248.077 15323.4
 355.255 219.236 14309.2
 354.24 197.683 13507.9
 353.231 194.093 13185
 352.228 218.115 13866.4
 351.23 255.796 15278.8
 350.238 276.23 16197.6
 349.251 278.73 16262.8
 348.27 277.627 15888.4
 347.295 276.527 15345
 346.324 276.489 14847.7
 345.36 279.208 14586.5
 344.4 276.791 14417.7
 343.446 265.231 14067
 342.498 249.69 13552
 341.554 234.937 13021.7
 340.616 223.306 12627.4
 339.683 214.512 12431.3
 338.754 206.895 12322.8
 337.831 199.314 12147.6
 336.913 191.333 11856
 336 183.183 11491.4
 335.092 175.332 11112
 334.189 168.3 10757.1
 333.291 162.209 10440.9
 332.397 156.483 10145.5
 331.508 150.808 9854.88
 330.624 145.328 9572.73
 329.745 140.057 9299.43
 328.87 135.01 9034.37
 328 130.227 8779.01
 327.135 125.712 8534.05
 326.274 121.451 8299.48
 325.418 117.429 8074.97
 324.566 113.627 7860.03
 323.718 110.028 7654.08
 322.875 106.614 7456.51
 322.037 103.372 7266.76
 321.202 100.287 7084.33
 320.372 97.3483 6908.8
 319.547 94.5451 6739.74
 318.725 91.868 6576.79
 317.908 89.3084 6419.62
 317.095 86.8586 6267.91
 316.286 84.5115 6121.37
 315.481 82.2608 5979.74
 314.681 80.1004 5842.79
 313.884 78.0251 5710.28
 313.091 76.0298 5582
 312.303 74.1099 5457.76
 311.518 72.2612 5337.39
 310.737 70.4797 5220.69
 309.96 68.762 5107.53
