 Energy(eV)     Sca_U     Sca_D
 495.937 1.40549 202.794
 494.453 1.44236 208.196
 492.979 1.4805 213.782
 491.513 1.51995 219.559
 490.056 1.56078 225.538
 488.607 1.60306 231.726
 487.168 1.64686 238.133
 485.736 1.69224 244.77
 484.313 1.7393 251.648
 482.898 1.7881 258.779
 481.492 1.83875 266.174
 480.093 1.89134 273.846
 478.703 1.94596 281.81
 477.321 2.00273 290.08
 475.947 2.06177 298.671
 474.58 2.12319 307.601
 473.222 2.18713 316.887
 471.871 2.25374 326.548
 470.528 2.32317 336.604
 469.193 2.39559 347.078
 467.865 2.47116 357.991
 466.544 2.55009 369.369
 465.231 2.63259 381.239
 463.926 2.71887 393.628
 462.627 2.80919 406.568
 461.336 2.9038 420.091
 460.052 3.00299 434.232
 458.776 3.10708 449.03
 457.506 3.21641 464.526
 456.243 3.33135 480.765
 454.988 3.45231 497.794
 453.739 3.57974 515.665
 452.497 3.71412 534.436
 451.262 3.85601 554.167
 450.033 4.006 574.925
 448.811 4.16476 596.783
 447.596 4.33302 619.82
 446.388 4.51161 644.124
 445.185 4.70144 669.79
 443.99 4.90354 696.922
 442.801 5.11907 725.634
 441.618 5.34932 756.055
 440.441 5.59577 788.324
 439.271 5.86011 822.596
 438.107 6.14423 859.044
 436.949 6.45034 897.859
 435.797 6.78096 939.256
 434.651 7.13901 983.473
 433.511 7.52789 1030.78
 432.377 7.95158 1081.49
 431.249 8.41478 1135.93
 430.127 8.92303 1194.5
 429.011 9.48297 1257.65
 427.9 10.1026 1325.89
 426.796 10.7915 1399.8
 425.697 11.5615 1480.08
 424.603 12.4271 1567.52
 423.515 13.4065 1663.05
 422.433 14.5225 1767.78
 421.356 15.804 1883.04
 420.285 17.2883 2010.39
 419.219 19.024 2151.77
 418.159 21.0752 2309.51
 417.104 23.5279 2486.51
 416.054 26.4987 2686.39
 415.01 30.1484 2913.71
 413.97 34.7018 3174.23
 412.936 40.4773 3475.34
 411.907 47.9304 3826.4
 410.884 57.7144 4239.11
 409.865 70.757 4727.3
 408.851 88.3229 5305.25
 407.843 111.958 5981.61
 406.839 143.018 6744.2
 405.84 181.23 7529.99
 404.846 222.047 8190.15
 403.857 255.123 8503.82
 402.873 269.231 8311.03
 401.893 262.08 7708.76
 400.919 242.128 7067.64
 399.949 219.757 6719.75
 398.984 200.687 6740.24
 398.023 186.547 7065.3
 397.067 177.177 7625.37
 396.115 171.901 8379.3
 395.169 169.968 9310.11
 394.226 170.63 10416.5
 393.288 173.048 11705.1
 392.355 176.098 13177.4
 391.426 178.119 14798.4
 390.501 176.871 16426.2
 389.581 170.438 17734.9
 388.665 159.442 18295.4
 387.753 147.868 17929.3
 386.846 139.682 16910.6
 385.943 135.224 15691.2
 385.044 130.96 14581.5
 384.149 121.634 13628.1
 383.259 105.476 12638.2
 382.372 86.6316 11432.9
 381.49 69.6033 10058.7
 380.611 55.8136 8667.5
 379.737 44.9368 7365.45
 378.867 36.3352 6199.31
 378 29.5534 5189.26
 377.138 24.4132 4355.72
 376.28 21.0314 3737.31
 375.425 19.8112 3399.76
 374.574 21.2647 3417.79
 373.728 25.4087 3796.66
 372.885 30.9723 4365.09
 372.045 35.7769 4823.44
 371.21 38.5228 4983.13
 370.378 39.5933 4874
 369.55 40.2617 4630.56
 368.726 41.7554 4374.76
 367.905 44.3086 4178.09
 367.088 46.3067 4055.82
 366.275 45.2063 3956.13
 365.465 40.4523 3819.42
 364.659 34.1128 3665.26
 363.857 28.2795 3524.3
 363.058 23.7487 3360.29
 362.262 20.391 3143.38
 361.47 17.8323 2895.71
 360.681 15.7938 2648.25
 359.896 14.1112 2416.98
 359.114 12.686 2206.34
 358.336 11.4544 2015.62
 357.561 10.3722 1842.45
 356.789 9.40729 1684.2
 356.021 8.53534 1538.52
 355.255 7.73774 1403.58
 354.494 7.00018 1278.3
 353.735 6.31245 1162.85
 352.98 5.66969 1059.37
 352.228 5.07546 972.444
 351.479 4.54838 908.369
 350.733 4.14744 875.251
 349.991 4.01341 885.504
 349.251 4.29876 952.44
 348.515 4.91969 1068.14
 347.782 5.48353 1177.76
 347.051 5.72137 1228.98
 346.324 5.78509 1235.41
 345.6 5.97316 1243.95
 344.879 6.36598 1274.7
 344.161 6.74109 1305.97
 343.446 6.90739 1316.01
 342.734 6.87067 1303.33
 342.025 6.67064 1268.14
 341.319 6.3505 1214.13
 340.616 5.97846 1152.18
 339.915 5.61412 1092.7
 339.218 5.29598 1041.69
 338.523 5.03631 999.566
 337.831 4.81368 962.063
 337.142 4.60024 924.87
 336.456 4.38755 886.788
 335.773 4.17944 848.79
 335.092 3.98145 812.284
 334.414 3.79842 778.403
 333.739 3.63446 747.956
 333.067 3.4907 721.127
 332.397 3.36138 696.879
 331.73 3.23816 673.735
 331.066 3.11879 651.286
 330.404 3.00445 629.748
 329.745 2.89475 609.068
 329.089 2.78904 589.141
 328.435 2.68769 570.032
 327.784 2.59117 551.815
 327.135 2.49957 534.5
 326.489 2.41273 518.055
 325.845 2.33037 502.43
 325.204 2.25222 487.576
 324.566 2.17799 473.441
 323.93 2.10741 459.974
 323.296 2.0402 447.125
 322.665 1.97612 434.852
 322.037 1.91495 423.113
 321.411 1.85651 411.876
 320.787 1.80061 401.106
 320.166 1.7471 390.776
 319.547 1.69582 380.858
 318.93 1.64664 371.328
 318.316 1.59945 362.164
 317.704 1.55412 353.344
 317.095 1.51055 344.851
 316.488 1.46864 336.666
 315.883 1.42831 328.773
 315.281 1.38948 321.157
 314.681 1.35206 313.804
 314.083 1.31599 306.701
 313.487 1.2812 299.836
 312.894 1.24762 293.197
 312.303 1.2152 286.774
 311.714 1.18389 280.557
 311.127 1.15363 274.537
 310.543 1.12437 268.704
 309.96 1.09608 263.051
