 Energy(eV)     Sca_U     Sca_D
 495.937 2412.77 151172
 493.961 2478.18 151732
 492.001 2535.11 151622
 490.056 2583.54 150925
 488.127 2623.81 149739
 486.212 2656.54 148175
 484.313 2682.52 146344
 482.429 2702.68 144356
 480.559 2717.96 142311
 478.703 2729.32 140302
 476.862 2737.63 138413
 475.035 2743.66 136716
 473.222 2748.11 135277
 471.423 2751.53 134153
 469.637 2754.36 133400
 467.865 2756.92 133069
 466.106 2759.4 133211
 464.36 2761.88 133879
 462.627 2764.31 135133
 460.908 2766.49 137036
 459.201 2768.1 139661
 457.506 2768.65 143091
 455.824 2767.48 147421
 454.154 2763.79 152750
 452.497 2756.59 159178
 450.851 2744.78 166783
 449.218 2727.17 175574
 447.596 2702.66 185412
 445.986 2670.36 195885
 444.388 2629.84 206149
 442.801 2581.21 214853
 441.225 2525.09 220311
 439.66 2462 221063
 438.107 2391.8 216599
 436.564 2313.45 207664
 435.032 2225.38 195854
 433.511 2126.21 182858
 432 2015.13 169943
 430.5 1891.98 157849
 429.011 1757.26 146921
 427.532 1612.37 137305
 426.062 1460.45 129093
 424.603 1308.07 122426
 423.154 1168.32 117551
 421.715 1065.19 114812
 420.285 1037.33 114515
 418.865 1134.93 116586
 417.455 1401.38 120132
 416.054 1841.8 123411
 414.663 2405.83 124661
 413.28 3010.33 123143
 411.907 3584.97 119303
 410.544 4100.4 114131
 409.189 4564.42 108575
 407.843 5002.09 103343
 406.505 5437.73 98953.5
 405.177 5883.43 95815.4
 403.857 6331.05 94267.9
 402.546 6746.93 94520.7
 401.243 7073.74 96512.2
 399.949 7246.64 99768.6
 398.663 7222.74 103433
 397.385 7005.28 106560
 396.115 6640.96 108493
 394.854 6194.13 109033
 393.6 5721.81 108329
 392.355 5263.24 106678
 391.117 4840.3 104383
 389.887 4462.03 101693
 388.665 4129.43 98793.5
 387.45 3839.23 95812
 386.243 3586.39 92830.3
 385.044 3365.49 89898.6
 383.852 3171.4 87045.2
 382.667 2999.63 84284.2
 381.49 2846.32 81620.2
 380.319 2708.23 79052.5
 379.156 2582.69 76576.3
 378 2467.43 74185.1
 376.851 2360.58 71870.8
 375.71 2260.53 69624.4
 374.574 2165.9 67436.2
 373.446 2075.42 65296.1
 372.325 1987.93 63193.3
 371.21 1902.27 61116.8
 370.102 1817.25 59055.5
 369 1731.53 56999.9
 367.905 1643.64 54946.2
 366.817 1552.06 52907.1
 365.735 1455.84 50936.9
 364.659 1356.62 49178.3
 363.59 1262.51 47870
 362.527 1184.25 47082.8
 361.47 1101.81 46508.2
 360.419 957.832 46200.2
 359.374 742.085 46882.1
 358.336 552.518 49152.6
 357.303 499.486 51839.7
 356.276 558.378 53324.4
 355.255 654.442 53354.6
 354.24 754.312 52350.3
