 Energy(eV)     Sca_U     Sca_D
 495.937 14.7285 189.471
 493.961 15.2443 196.248
 492.001 15.7829 203.335
 490.056 16.3456 210.753
 488.127 16.9338 218.52
 486.212 17.5491 226.66
 484.313 18.193 235.195
 482.429 18.8675 244.151
 480.559 19.5743 253.556
 478.703 20.3155 263.44
 476.862 21.0934 273.836
 475.035 21.9103 284.778
 473.222 22.7689 296.305
 471.423 23.6719 308.46
 469.637 24.6226 321.288
 467.865 25.624 334.838
 466.106 26.6801 349.167
 464.36 27.7946 364.334
 462.627 28.9719 380.405
 460.908 30.2167 397.454
 459.201 31.5343 415.56
 457.506 32.9303 434.813
 455.824 34.4111 455.311
 454.154 35.9834 477.164
 452.497 37.6549 500.495
 450.851 39.4341 525.439
 449.218 41.3302 552.15
 447.596 43.3536 580.8
 445.986 45.5159 611.581
 444.388 47.8298 644.713
 442.801 50.3099 680.444
 441.225 52.9721 719.057
 439.66 55.8345 760.875
 438.107 58.9177 806.271
 436.564 62.2446 855.673
 435.032 65.8414 909.58
 433.511 69.7378 968.572
 432 73.9677 1033.33
 430.5 78.57 1104.67
 429.011 83.5894 1183.54
 427.532 89.0774 1271.11
 426.062 95.0939 1368.77
 424.603 101.709 1478.24
 423.154 109.003 1601.64
 421.715 117.073 1741.64
 420.285 126.034 1901.65
 418.865 136.021 2086.05
 417.455 147.197 2300.63
 416.054 159.76 2553.13
 414.663 173.951 2854.13
 413.28 190.065 3218.26
 411.907 208.459 3665.87
 410.544 229.555 4224.81
 409.189 253.797 4929.94
 407.843 281.465 5812.1
 406.505 312.064 6851.89
 405.177 342.816 7862.96
 403.857 367.11 8391.83
 402.546 379.932 8030.28
 401.243 394.842 7114.78
 399.949 432.702 6506.8
 398.663 492.129 6521.99
 397.385 564.838 7030.67
 396.115 647.014 7904.19
 394.854 736.901 9092.19
 393.6 832.162 10594.8
 392.355 928.34 12425.2
 391.117 1017.48 14512.8
 389.887 1086.34 16448.4
 388.665 1117.09 17337.7
 387.45 1098.71 16685.5
 386.243 1037.73 15194.7
 385.044 951.937 13760.5
 383.852 859.859 12571.8
 382.667 764.033 11188.9
 381.49 656.907 9471.39
 380.319 545.372 7726.87
 379.156 440.318 6170.13
 378 348.603 4870.21
 376.851 276.478 3869.6
 375.71 234.493 3261.55
 374.574 238.554 3200.51
 373.446 293.315 3713.08
 372.325 361.627 4372.04
 371.21 392.45 4629.2
 370.102 380.011 4460.63
 369 346.181 4150.85
 367.905 308.038 3914.36
 366.817 273.07 3797.39
 365.735 243.508 3668.31
 364.659 222.091 3477.28
 363.59 209.033 3292.43
 362.527 195.806 3046.45
 361.47 178.744 2734.8
 360.419 160.678 2423.5
 359.374 143.638 2143.75
 358.336 128.152 1898.92
 357.303 114.153 1684.05
 356.276 101.424 1493.21
 355.255 89.7491 1321.56
 354.24 79.0052 1166.42
 353.231 69.2726 1028.91
 352.228 61.0174 916.503
 351.23 55.1501 842.626
 350.238 53.2466 827.111
 349.251 58.043 898.695
 348.27 69.0111 1045.06
 347.295 77.033 1147.55
 346.324 78.8651 1162.33
 345.36 81.5036 1176.77
 344.4 86.7566 1217.23
 343.446 89.5209 1233.4
 342.498 88.4496 1212.48
 341.554 84.1831 1155.9
 340.616 78.324 1079.83
 339.683 72.6494 1007.46
 338.754 68.0073 949.937
 337.831 64.1589 902.718
 336.913 60.4665 856.314
 336 56.8121 808.792
 335.092 53.3689 762.896
 334.189 50.2844 721.301
 333.291 47.6538 685.588
 332.397 45.4028 654.837
 331.508 43.2964 626.065
 330.624 41.2808 598.584
 329.745 39.3724 572.59
 328.87 37.5546 547.876
 328 35.8386 524.57
 327.135 34.2334 502.767
 326.274 32.7353 482.407
 325.418 31.3367 463.386
 324.566 30.0292 445.59
 323.718 28.8046 428.905
 322.875 27.6549 413.224
 322.037 26.5732 398.455
 321.202 25.5536 384.519
 320.372 24.5909 371.346
 319.547 23.6805 358.873
 318.725 22.8183 347.046
 317.908 22.0005 335.816
 317.095 21.2239 325.138
 316.286 20.4856 314.973
 315.481 19.7828 305.285
 314.681 19.1133 296.042
 313.884 18.4747 287.216
 313.091 17.8652 278.779
 312.303 17.2828 270.706
 311.518 16.7259 262.977
 310.737 16.193 255.569
 309.96 15.6827 248.464
