 Energy(eV)     Sca_U     Sca_D
 495.937 628.833 74996.9
 493.961 679.529 77437.3
 492.001 734.004 79976.5
 490.056 792.548 82628.3
 488.127 855.478 85408.9
 486.212 923.139 88336.8
 484.313 995.906 91432.9
 482.429 1074.18 94720.6
 480.559 1158.39 98226
 478.703 1249 101978
 476.862 1346.47 106006
 475.035 1451.28 110344
 473.222 1563.89 115025
 471.423 1684.76 120084
 469.637 1814.25 125553
 467.865 1952.63 131461
 466.106 2100.04 137834
 464.36 2256.36 144687
 462.627 2421.22 152022
 460.908 2593.84 159826
 459.201 2772.99 168062
 457.506 2956.86 176668
 455.824 3143.05 185549
 454.154 3328.49 194577
 452.497 3509.54 203592
 450.851 3682.04 212405
 449.218 3841.62 220809
 447.596 3983.96 228595
 445.986 4105.31 235570
 444.388 4202.94 241587
 442.801 4275.72 246561
 441.225 4324.73 250496
 439.66 4353.83 253493
 438.107 4370.32 255752
 436.564 4385.7 257560
 435.032 4416.33 259259
 433.511 4483.72 261199
 432 4613.44 263670
 430.5 4830.74 266812
 429.011 5150.35 270479
 427.532 5558.44 274073
 426.062 5992.12 276430
 424.603 6336.71 275994
 423.154 6466.95 271489
 421.715 6320.39 262748
 420.285 5936.14 250890
 418.865 5420.13 237624
 417.455 4881.32 224444
 416.054 4394.29 212288
 414.663 3994.9 201602
 413.28 3690.11 192513
 411.907 3468.3 184979
 410.544 3305.88 178865
 409.189 3171.83 173942
 407.843 3034.42 169855
 406.505 2872.44 166158
 405.177 2683.38 162453
 403.857 2479.57 158522
 402.546 2276.9 154340
 401.243 2086.86 149986
 399.949 1914.98 145559
 398.663 1762.54 141142
 397.385 1628.58 136791
 396.115 1511.21 132538
 394.854 1408.38 128403
 393.6 1318.14 124392
 392.355 1238.76 120509
 391.117 1168.76 116750
 389.887 1106.87 113112
 388.665 1052.02 109590
 387.45 1003.29 106179
 386.243 959.897 102874
 385.044 921.181 99670.2
 383.852 886.565 96562
 382.667 855.555 93545.5
 381.49 827.727 90616.3
 380.319 802.711 87770.4
 379.156 780.191 85003.7
 378 759.893 82312.2
 376.851 741.584 79691.5
 375.71 725.063 77136.9
 374.574 710.163 74643.4
 373.446 696.747 72205.4
 372.325 684.705 69816.3
 371.21 673.958 67469.1
 370.102 664.458 65155.4
 369 656.199 62866
 367.905 649.225 60590.6
 366.817 643.663 58318.7
 365.735 639.783 56040.6
 364.659 638.12 53752.4
 363.59 639.768 51467.3
 362.527 647.049 49244.8
 361.47 665.035 47265
 360.419 704.288 46000.9
 359.374 780.638 46472.7
 358.336 886.937 49896.5
 357.303 927.863 55386
 356.276 813.513 59488.5
 355.255 645.167 60644.2
 354.24 536.66 59856.5
