 Energy(eV)     Sca_U     Sca_D
 495.937 11.2046 1948.89
 494.453 11.5622 2008.1
 492.979 11.938 2069.76
 491.513 12.3332 2134
 490.056 12.7493 2200.96
 488.607 13.1878 2270.81
 487.168 13.6504 2343.7
 485.736 14.1392 2419.82
 484.313 14.656 2499.36
 482.898 15.2033 2582.53
 481.492 15.7836 2669.54
 480.093 16.3995 2760.63
 478.703 17.0543 2856.07
 477.321 17.7513 2956.14
 475.947 18.4943 3061.13
 474.58 19.2876 3171.38
 473.222 20.1358 3287.23
 471.871 21.0442 3409.09
 470.528 22.0187 3537.36
 469.193 23.0659 3672.5
 467.865 24.1932 3815.01
 466.544 25.4091 3965.45
 465.231 26.7228 4124.4
 463.926 28.1452 4292.51
 462.627 29.6883 4470.52
 461.336 31.3661 4659.2
 460.052 33.1942 4859.43
 458.776 35.1907 5072.16
 457.506 37.3763 5298.45
 456.243 39.7748 5539.48
 454.988 42.4137 5796.55
 453.739 45.3247 6071.1
 452.497 48.5447 6364.73
 451.262 52.1167 6679.25
 450.033 56.0909 7016.64
 448.811 60.526 7379.14
 447.596 65.491 7769.24
 446.388 71.0674 8189.74
 445.185 77.3514 8643.77
 443.99 84.4573 9134.85
 442.801 92.5207 9666.89
 441.618 101.703 10244.3
 440.441 112.199 10871.9
 439.271 124.238 11555.3
 438.107 138.099 12300.4
 436.949 154.112 13113.7
 435.797 172.675 14002.4
 434.651 194.26 14974
 433.511 219.427 16036.1
 432.377 248.833 17196.1
 431.249 283.236 18460.9
 430.127 323.493 19835.2
 429.011 370.538 21321.1
 427.9 425.329 22915.5
 426.796 488.759 24608.4
 425.697 561.5 26380.2
 424.603 643.783 28199.5
 423.515 735.111 30021.9
 422.433 833.956 31791.5
 421.356 937.532 33444
 420.285 1041.77 34911.3
 419.219 1141.57 36116.4
 418.159 1231.29 36948.6
 417.104 1305.15 37206.7
 416.054 1357.58 36560.2
 415.01 1384.14 34685.2
 413.97 1384.45 31673.6
 412.936 1364.36 28263.7
 411.907 1332.96 25373.3
 410.884 1297.3 23514.9
 409.865 1260.78 22762.6
 408.851 1224.26 22998.4
 407.843 1187.32 24081.5
 406.839 1148.75 25897.5
 405.84 1106.74 28351.9
 404.846 1059.01 31345
 403.857 1003 34742.1
 402.873 936.374 38349
 401.893 857.618 41899.5
 400.919 766.895 45068.5
 399.949 666.638 47519
 398.984 561.592 48975.1
 398.023 458.089 49292.3
 397.067 362.851 48493.8
 396.115 281.935 46756.5
 395.169 220.346 44370
 394.226 182.125 41701.9
 393.288 169.54 39179.3
 392.355 179.083 37207.4
 391.426 196.251 35878.5
 390.501 201.644 34718.7
 389.581 188.286 33135
 388.665 163.459 31016.4
 387.753 136.258 28588.3
 386.846 111.535 26071.2
 385.943 90.773 23587.1
 385.044 73.9525 21191.1
 384.149 60.6254 18912.5
 383.259 50.3755 16783.7
 382.372 42.9918 14861.5
 381.49 38.5035 13239.8
 380.611 37.0627 12036
 379.737 38.6144 11322.4
 378.867 42.5448 11030.6
 378 47.8404 10953.6
 377.138 53.8275 10910.3
 376.28 60.7985 10907.5
 375.425 70.3161 11124.6
 374.574 85.4629 11685.6
 373.728 109.593 12413.2
 372.885 142.184 13101.3
 372.045 175.779 13893.9
 371.21 197.592 14944.1
 370.378 197.778 16099.3
 369.55 178.567 17148.6
 368.726 150.879 17953.9
 367.905 124.173 18253.7
 367.088 102.251 17870.7
 366.275 85.1246 16973.6
 365.465 71.7546 15855.1
 364.659 61.1918 14712.1
 363.857 52.7313 13632.3
 363.058 45.8597 12642.1
 362.262 40.2024 11742.1
 361.47 35.4837 10923.3
 360.681 31.4981 10174.2
 359.896 28.0907 9483.85
 359.114 25.1419 8842.13
 358.336 22.5567 8240.35
 357.561 20.2557 7671.27
 356.789 18.1656 7129.55
 356.021 16.2083 6613.02
 355.255 14.29 6125.42
 354.494 12.3064 5680.52
 353.735 10.2175 5303.04
 352.98 8.18929 5018.15
 352.228 6.5813 4848.22
 351.479 5.85487 4834.98
 350.733 6.45717 5032.73
 349.991 8.11146 5443.49
 349.251 9.63381 5899.8
 348.515 10.2488 6164.01
 347.782 10.2381 6196.12
 347.051 10.164 6122.01
 346.324 10.2821 6044.02
 345.6 10.4383 5978.07
 344.879 10.4825 5915.32
 344.161 10.526 5868.9
 343.446 10.5827 5821.73
 342.734 10.4426 5720.91
 342.025 10.0243 5553.64
 341.319 9.42686 5352.39
 340.616 8.76002 5156.1
 339.915 8.11044 4992.78
 339.218 7.55867 4869.51
 338.523 7.12587 4769.71
 337.831 6.7692 4668.77
 337.142 6.44858 4552.03
 336.456 6.14591 4419.46
 335.773 5.85271 4279.19
 335.092 5.56967 4139.9
 334.414 5.30473 4008.14
 333.739 5.06658 3888.16
 333.067 4.85589 3780.3
 332.397 4.66123 3679.81
 331.73 4.47248 3581.91
 331.066 4.28986 3486.26
 330.404 4.11534 3393.76
 329.745 3.94768 3304.06
 329.089 3.78628 3216.94
 328.435 3.63202 3132.74
 327.784 3.48555 3051.71
 327.135 3.3469 2973.94
 326.489 3.21579 2899.34
 325.845 3.0918 2827.8
 325.204 2.97451 2759.15
 324.566 2.86348 2693.25
 323.93 2.75827 2629.93
 323.296 2.65848 2569.03
 322.665 2.56372 2510.4
 322.037 2.47364 2453.9
 321.411 2.38795 2399.42
 320.787 2.30635 2346.83
 320.166 2.22859 2296.05
 319.547 2.15442 2246.96
 318.93 2.08364 2199.5
 318.316 2.01603 2153.56
 317.704 1.95142 2109.09
 317.095 1.88963 2066
 316.488 1.8305 2024.23
 315.883 1.77388 1983.72
 315.281 1.71964 1944.42
 314.681 1.66765 1906.27
 314.083 1.6178 1869.22
 313.487 1.56996 1833.23
 312.894 1.52404 1798.24
 312.303 1.47995 1764.22
 311.714 1.43758 1731.13
 311.127 1.39685 1698.93
 310.543 1.35769 1667.59
 309.96 1.32002 1637.07
