 Energy(eV)     Sca_up     Sca_left
 442.801 11.4648 7.33141
 441.225 11.8165 7.57338
 439.66 12.1815 7.82525
 438.107 12.5608 8.08754
 436.564 12.9548 8.3608
 435.032 13.3645 8.64564
 433.511 13.7906 8.94269
 432 14.234 9.25263
 430.5 14.6956 9.5762
 429.011 15.1764 9.91417
 427.532 15.6775 10.2674
 426.062 16.2 10.6368
 424.603 16.7451 11.0232
 423.154 17.314 11.4279
 421.715 17.9082 11.8518
 420.285 18.5292 12.2962
 418.865 19.1786 12.7624
 417.455 19.858 13.2517
 416.054 20.5693 13.7659
 414.663 21.3146 14.3064
 413.28 22.0959 14.875
 411.907 22.9155 15.4738
 410.544 23.7761 16.1049
 409.189 24.6802 16.7705
 407.843 25.6308 17.4731
 406.505 26.6311 18.2156
 405.177 27.6846 19.0009
 403.857 28.7949 19.8323
 402.546 29.9661 20.7135
 401.243 31.2027 21.6484
 399.949 32.5096 22.6415
 398.663 33.8919 23.6975
 397.385 35.3555 24.8219
 396.115 36.9066 26.0205
 394.854 38.5523 27.3001
 393.6 40.3 28.6679
 392.355 42.1581 30.1321
 391.117 44.1359 31.7021
 389.887 46.2433 33.3881
 388.665 48.4916 35.2017
 387.45 50.893 37.1561
 386.243 53.4611 39.2661
 385.044 56.2111 41.5486
 383.852 59.1594 44.023
 382.667 62.3247 46.7112
 381.49 65.7274 49.6387
 380.319 69.3902 52.8348
 379.156 73.3386 56.3335
 378 77.6005 60.1746
 376.851 82.2072 64.4045
 375.71 87.1934 69.0783
 374.574 92.5975 74.2613
 373.446 98.462 80.0315
 372.325 104.834 86.483
 371.21 111.765 93.7298
 370.102 119.312 101.912
 369 127.537 111.2
 367.905 136.505 121.809
 366.817 146.288 134.004
 365.735 156.957 148.116
 364.659 168.589 164.554
 363.59 181.254 183.814
 362.527 195.017 206.461
 361.47 209.925 233.059
 360.419 225.997 263.961
 359.374 243.196 298.843
 358.336 261.395 335.847
 357.303 280.323 370.579
 356.276 299.519 396.118
 355.255 318.352 405.879
 354.24 336.105 398.47
 353.231 352.04 379.173
 352.228 365.362 355.729
 351.23 375.15 333.631
 350.238 380.4 314.959
 349.251 380.145 299.525
 348.27 373.606 286.167
 347.295 360.335 273.375
 346.324 340.322 259.35
 345.36 314.134 241.946
 344.4 283.28 219.64
 343.446 251.179 194.495
 342.498 225.183 175.329
 341.554 218.296 176.966
 340.616 241.043 209.099
 339.683 278.287 251.184
 338.754 298.36 264.312
 337.831 293.15 245.484
 336.913 273.067 214.524
 336 247.568 183.408
 335.092 221.324 155.673
 334.189 196.131 131.673
 333.291 172.526 111.049
 332.397 150.666 93.6528
 331.508 130.991 80.1933
 330.624 115.215 73.1596
 329.745 107.201 77.0317
 328.87 108.891 92.7606
 328 112.469 110.586
 327.135 110.326 119.274
 326.274 104.107 116.688
