 Energy(eV)     Sca_up     Sca_left
 442.801 1.03327 0.577188
 441.225 1.0648 0.595329
 439.66 1.09752 0.614173
 438.107 1.1315 0.633755
 436.564 1.1668 0.654114
 435.032 1.20348 0.675289
 433.511 1.24161 0.697324
 432 1.28128 0.720262
 430.5 1.32255 0.744154
 429.011 1.36553 0.769052
 427.532 1.4103 0.795009
 426.062 1.45695 0.822087
 424.603 1.5056 0.850348
 423.154 1.55636 0.879861
 421.715 1.60935 0.910699
 420.285 1.66471 0.94294
 418.865 1.72256 0.976669
 417.455 1.78306 1.01198
 416.054 1.84638 1.04896
 414.663 1.91269 1.08773
 413.28 1.98217 1.1284
 411.907 2.05504 1.17108
 410.544 2.13151 1.21592
 409.189 2.21182 1.26306
 407.843 2.29623 1.31266
 406.505 2.38503 1.36488
 405.177 2.47851 1.41992
 403.857 2.57701 1.47798
 402.546 2.6809 1.53928
 401.243 2.79057 1.60407
 399.949 2.90646 1.6726
 398.663 3.02904 1.74517
 397.385 3.15883 1.82211
 396.115 3.29642 1.90377
 394.854 3.44243 1.99053
 393.6 3.59756 2.08283
 392.355 3.76258 2.18114
 391.117 3.93836 2.28601
 389.887 4.12584 2.39801
 388.665 4.32607 2.51782
 387.45 4.54024 2.64615
 386.243 4.76967 2.78386
 385.044 5.01583 2.93185
 383.852 5.28039 3.09118
 382.667 5.56522 3.26303
 381.49 5.87242 3.44874
 380.319 6.20441 3.64985
 379.156 6.5639 3.8681
 378 6.95401 4.10547
 376.851 7.37827 4.36428
 375.71 7.84078 4.64717
 374.574 8.34625 4.95722
 373.446 8.90011 5.29801
 372.325 9.50869 5.67373
 371.21 10.1794 6.08931
 370.102 10.9208 6.55059
 369 11.7431 7.06451
 367.905 12.6584 7.63936
 366.817 13.681 8.28516
 365.735 14.828 9.01404
 364.659 16.12 9.84088
 363.59 17.5819 10.784
 362.527 19.2439 11.8662
 361.47 21.1432 13.1162
 360.419 23.3253 14.5706
 359.374 25.8467 16.2763
 358.336 28.7777 18.2948
 357.303 32.2064 20.7075
 356.276 36.2432 23.6238
 355.255 41.0272 27.1937
 354.24 46.7328 31.6249
 353.231 53.577 37.2055
 352.228 61.824 44.3206
 351.23 71.7826 53.4031
 350.238 83.7779 64.5859
 349.251 98.0668 76.5405
 348.27 114.655 85.2492
 347.295 133.046 88.0764
 346.324 151.897 88.8354
 345.36 168.514 90.6955
 344.4 178.923 92.2101
 343.446 179.294 90.5944
 342.498 168.28 84.3968
 341.554 148.194 74.3068
 340.616 123.7 62.4346
 339.683 99.5763 51.071
 338.754 79.7971 42.2046
 337.831 68.0986 38.0772
 336.913 67.0624 40.2285
 336 71.9472 44.7396
 335.092 72.0944 44.422
 334.189 65.4587 39.2684
 333.291 56.3185 32.8719
 332.397 47.4956 27.0495
 331.508 39.847 22.192
 330.624 33.4321 18.237
 329.745 28.1292 15.0751
 328.87 23.9036 12.7175
 328 20.9981 11.4239
 327.135 19.8637 11.6119
 326.274 19.9504 12.8873
