 Energy(eV)     Sca_up     Sca_left
 442.801 31.7707 2.00066 322.657
 441.225 32.0929 2.13496 334.925
 439.66 32.418 2.27986 347.769
 438.107 32.746 2.43632 361.224
 436.564 33.077 2.60541 375.325
 435.032 33.411 2.78827 390.114
 433.511 33.7481 2.98618 405.632
 432 34.0881 3.20056 421.927
 430.5 34.4313 3.43297 439.047
 429.011 34.7775 3.68512 457.047
 427.532 35.1267 3.95892 475.986
 426.062 35.4789 4.25647 495.928
 424.603 35.834 4.58009 516.941
 423.154 36.1918 4.93235 539.102
 421.715 36.5523 5.3161 562.495
 420.285 36.9152 5.73449 587.209
 418.865 37.2803 6.19099 613.346
 417.455 37.6473 6.68946 641.016
 416.054 38.016 7.23416 670.342
 414.663 38.386 7.82976 701.461
 413.28 38.7568 8.48148 734.526
 411.907 39.128 9.195 769.707
 410.544 39.4992 9.9766 807.198
 409.189 39.8698 10.8332 847.218
 407.843 40.2395 11.7723 890.013
 406.505 40.6078 12.8021 935.869
 405.177 40.9747 13.9315 985.111
 403.857 41.3401 15.1702 1038.12
 402.546 41.7046 16.5285 1095.32
 401.243 42.0696 18.0174 1157.23
 399.949 42.4372 19.6485 1224.45
 398.663 42.8114 21.434 1297.66
 397.385 43.1984 23.3864 1377.68
 396.115 43.6074 25.5185 1465.44
 394.854 44.0525 27.8428 1562.06
 393.6 44.5541 30.3716 1668.75
 392.355 45.1416 33.1166 1786.92
 391.117 45.8569 36.0883 1918.03
 389.887 46.7582 39.2957 2063.51
 388.665 47.9259 42.7458 2224.53
 387.45 49.4668 46.4434 2401.6
 386.243 51.5193 50.3899 2593.81
 385.044 54.2514 54.5819 2797.83
 383.852 57.8493 59.0084 3006.41
 382.667 62.4848 63.6445 3206.88
 381.49 68.2538 68.4428 3380.14
 380.319 75.0899 73.3214 3501.92
 379.156 82.6839 78.1545 3547.45
 378 90.4711 82.7755 3499.83
 376.851 97.7428 86.9978 3358.42
 375.71 103.858 90.6507 3141.67
 374.574 108.438 93.6103 2881.38
 373.446 111.434 95.8104 2612.07
 372.325 113.049 97.2328 2361.75
 371.21 113.607 97.8904 2148.1
 370.102 113.437 97.8125 1979.13
 369 112.809 97.0381 1856.09
 367.905 111.917 95.6143 1776.36
 366.817 110.886 93.5975 1735.72
 365.735 109.787 91.0545 1729.78
 364.659 108.659 88.0632 1754.83
 363.59 107.526 84.7126 1808.49
 362.527 106.42 81.1001 1890.13
 361.47 105.399 77.3293 2001.36
 360.419 104.573 73.5033 2146.53
 359.374 104.127 69.7143 2333.18
 358.336 104.342 66.0219 2571.93
 357.303 105.585 62.4113 2874.6
 356.276 108.206 58.7163 3247.94
 355.255 112.276 54.5151 3678.21
 354.24 117.174 49.1128 4103.72
 353.231 121.555 41.9729 4392.69
 352.228 124.222 33.7568 4395.69
 351.23 124.642 26.3404 4096.85
 350.238 122.204 20.796 3638.8
 349.251 116.6 16.7788 3160.34
 348.27 108.448 13.6814 2722.24
 347.295 98.831 11.1662 2337.3
 346.324 88.8257 9.09733 2000.95
 345.36 79.4451 7.43017 1704.75
 344.4 71.731 6.16576 1442.06
 343.446 66.5972 5.33875 1211.9
 342.498 64.0222 5.01157 1024.37
 341.554 62.0905 5.22787 908.969
 340.616 58.1596 5.80897 918.801
 339.683 52.2399 6.00394 1087.84
 338.754 47.5234 4.98088 1314.12
 337.831 46.5569 3.50654 1418.73
 336.913 50.6859 3.39772 1394.6
 336 62.8345 5.71372 1368.51
 335.092 86.7954 10.3142 1463.79
 334.189 121.804 15.5223 1734.08
 333.291 155.809 18.8718 2090.81
 332.397 172.02 19.3549 2344.18
 331.508 167.01 17.854 2400.58
 330.624 150.054 15.6168 2311.31
 329.745 130.09 13.3755 2157.87
 328.87 111.38 11.4002 1990.17
 328 95.1675 9.74069 1829.43
 327.135 81.468 8.36975 1682.27
 326.274 69.9335 7.24152 1549.3
