 Energy(eV)     Sca_up     Sca_left
 442.801 6.15655 0.0416244 10.5738
 441.225 6.31289 0.0431174 10.9162
 439.66 6.47428 0.0446883 11.2724
 438.107 6.64094 0.0463429 11.6431
 436.564 6.81312 0.0480873 12.029
 435.032 6.99107 0.0499281 12.4311
 433.511 7.17505 0.0518727 12.8501
 432 7.36536 0.0539291 13.2871
 430.5 7.5623 0.056106 13.743
 429.011 7.76619 0.0584132 14.2189
 427.532 7.97737 0.0608613 14.716
 426.062 8.19621 0.0634619 15.2355
 424.603 8.4231 0.066228 15.7787
 423.154 8.65844 0.0691738 16.3471
 421.715 8.90269 0.0723153 16.9423
 420.285 9.15631 0.0756698 17.5659
 418.865 9.41981 0.0792568 18.2197
 417.455 9.69372 0.0830982 18.9057
 416.054 9.97863 0.087218 19.6259
 414.663 10.2751 0.0916434 20.3827
 413.28 10.5839 0.0964047 21.1786
 411.907 10.9057 0.101536 22.0163
 410.544 11.2412 0.107075 22.8987
 409.189 11.5913 0.113066 23.829
 407.843 11.9569 0.119558 24.8107
 406.505 12.3388 0.126605 25.8477
 405.177 12.7382 0.134271 26.9442
 403.857 13.1561 0.142627 28.1048
 402.546 13.5939 0.151757 29.3345
 401.243 14.0526 0.161753 30.6391
 399.949 14.5339 0.172724 32.0245
 398.663 15.0391 0.184796 33.4978
 397.385 15.5701 0.198112 35.0664
 396.115 16.1285 0.212841 36.7388
 394.854 16.7165 0.229179 38.5244
 393.6 17.3361 0.247356 40.4336
 392.355 17.9897 0.26764 42.4784
 391.117 18.68 0.290352 44.6717
 389.887 19.4097 0.315867 47.0286
 388.665 20.1821 0.344637 49.5658
 387.45 21.0005 0.3772 52.3024
 386.243 21.8688 0.414205 55.26
 385.044 22.7911 0.456435 58.4633
 383.852 23.7722 0.504847 61.9408
 382.667 24.8171 0.56061 65.725
 381.49 25.9316 0.625165 69.8535
 380.319 27.122 0.700304 74.3701
 379.156 28.3955 0.788263 79.3257
 378 29.7601 0.89186 84.7799
 376.851 31.2245 1.01468 90.8028
 375.71 32.7988 1.1613 97.4776
 374.574 34.4942 1.33766 104.903
 373.446 36.3232 1.55149 113.197
 372.325 38.3 1.81302 122.501
 371.21 40.4407 2.13584 132.987
 370.102 42.7632 2.53831 144.863
 369 45.2876 3.04544 158.381
 367.905 48.0366 3.69167 173.85
 366.817 51.0352 4.52505 191.641
 365.735 54.3103 5.61309 212.203
 364.659 57.8902 7.05135 236.061
 363.59 61.8019 8.97509 263.801
 362.527 66.0661 11.5739 296.01
 361.47 70.6861 15.1053 333.125
 360.419 75.6247 19.8946 375.1
 359.374 80.7552 26.286 420.812
 358.336 85.7634 34.4796 467.218
 357.303 89.9607 44.1941 508.739
 356.276 91.9855 54.2779 537.754
 355.255 89.6494 62.7874 545.131
 354.24 81.5571 67.9522 516.492
 353.231 72.7878 69.2574 438.625
 352.228 74.0541 67.6009 340.89
 351.23 86.5885 64.5682 278.789
 350.238 103.877 61.3914 269.802
 349.251 121.792 58.5952 306.044
 348.27 139.06 56.1509 379.656
 347.295 155.33 53.589 486.026
 346.324 170.227 50.0237 617.319
 345.36 182.993 44.3652 752.308
 344.4 192.404 36.1381 851.52
 343.446 197.075 26.6226 876.379
 342.498 196.093 18.6181 826.059
 341.554 189.533 14.4054 743.533
 340.616 179.065 13.968 681.215
 339.683 168.487 14.3039 653.781
 338.754 159.388 12.2785 613.778
 337.831 147.296 8.75655 534.058
 336.913 130.21 5.65772 441.015
 336 110.341 3.50476 355.356
 335.092 90.8895 2.12952 282.683
 334.189 75.9734 1.29282 224.683
 333.291 71.0384 0.838873 184.445
 332.397 79.0472 0.703645 164.455
 331.508 93.0124 0.883025 159.571
 330.624 101.065 1.41678 161.253
 329.745 99.7018 2.46036 169.997
 328.87 92.3329 4.25104 189.229
 328 82.7808 6.34337 217.417
 327.135 73.7661 7.1919 247.858
 326.274 67.7256 6.30092 269.789
