 Energy(eV)     Sca_up     Sca_left
 442.801 20.1191 0.290135 70.2314
 441.225 20.5253 0.306052 72.7356
 439.66 20.9423 0.323155 75.3523
 438.107 21.3706 0.341554 78.0881
 436.564 21.8105 0.361368 80.95
 435.032 22.2627 0.382732 83.9455
 433.511 22.7275 0.405794 87.0828
 432 23.2057 0.430719 90.3705
 430.5 23.6977 0.457692 93.8181
 429.011 24.2043 0.486919 97.4357
 427.532 24.726 0.518629 101.234
 426.062 25.2636 0.553081 105.225
 424.603 25.8178 0.590564 109.422
 423.154 26.3894 0.631403 113.838
 421.715 26.9793 0.675966 118.488
 420.285 27.5883 0.724667 123.389
 418.865 28.2174 0.777973 128.559
 417.455 28.8677 0.836417 134.015
 416.054 29.5401 0.900599 139.781
 414.663 30.2359 0.971208 145.877
 413.28 30.9562 1.04903 152.33
 411.907 31.7024 1.13495 159.167
 410.544 32.4758 1.23 166.417
 409.189 33.278 1.33537 174.113
 407.843 34.1105 1.4524 182.292
 406.505 34.975 1.58267 190.992
 405.177 35.8733 1.72799 200.257
 403.857 36.8073 1.89048 210.136
 402.546 37.7791 2.07258 220.68
 401.243 38.7909 2.27717 231.949
 399.949 39.845 2.50759 244.006
 398.663 40.9438 2.76779 256.924
 397.385 42.09 3.06241 270.782
 396.115 43.2864 3.3969 285.666
 394.854 44.5357 3.77777 301.675
 393.6 45.8412 4.21269 318.916
 392.355 47.2058 4.71082 337.509
 391.117 48.6329 5.28309 357.587
 389.887 50.1256 5.94254 379.297
 388.665 51.6872 6.70483 402.802
 387.45 53.3205 7.58868 428.282
 386.243 55.0281 8.61663 455.935
 385.044 56.8119 9.81565 485.979
 383.852 58.6729 11.2181 518.653
 382.667 60.6103 12.8626 554.215
 381.49 62.6208 14.7951 592.948
 380.319 64.6978 17.0697 635.155
 379.156 66.8291 19.7494 681.166
 378 68.9948 22.9063 731.337
 376.851 71.1636 26.6209 786.066
 375.71 73.2876 30.9792 845.808
 374.574 75.2939 36.0681 911.119
 373.446 77.0734 41.9669 982.722
 372.325 78.4623 48.7341 1061.61
 371.21 79.2153 56.3911 1149.16
 370.102 78.9659 64.9031 1247.19
 369 77.1741 74.1622 1357.62
 367.905 73.0799 83.9799 1481.11
 366.817 65.745 94.0907 1613.19
 365.735 54.4246 104.159 1736.14
 364.659 39.6649 113.755 1809.53
 363.59 24.8984 122.298 1776.92
 362.527 16.0316 129.105 1612.57
 361.47 16.9235 133.693 1367.85
 360.419 26.0844 136.016 1134.35
 359.374 39.3376 136.283 971.49
 358.336 53.4157 134.675 891.729
 357.303 66.7464 131.244 883.661
 356.276 78.7956 125.941 930.071
 355.255 89.4225 118.677 1014.16
 354.24 98.5412 109.405 1120.24
 353.231 105.99 98.2033 1233.46
 352.228 111.511 85.3461 1340.39
 351.23 114.775 71.3276 1430.91
 350.238 115.447 56.8164 1500.67
 349.251 113.268 42.5751 1553.46
 348.27 108.261 29.433 1602.33
 347.295 101.274 18.4507 1667.14
 346.324 95.1109 11.2575 1759.99
 345.36 94.8675 9.51091 1848.1
 344.4 102.672 11.8257 1841.23
 343.446 111.675 13.5622 1695.75
 342.498 114.272 12.7479 1475.13
 341.554 109.422 10.4745 1250.87
 340.616 99.3297 7.93162 1050.59
 339.683 86.5389 5.6642 876.767
 338.754 73.9355 3.83556 725.963
 337.831 65.4724 2.46595 597.02
 336.913 65.2476 1.55734 493.449
 336 73.0555 1.15906 421.168
 335.092 81.9975 1.36618 386.798
 334.189 85.2828 2.25176 403.293
 333.291 81.9084 3.91355 472.038
 332.397 74.2544 6.89808 542.865
 331.508 65.191 11.7775 596.099
 330.624 58.4187 17.0985 688.992
 329.745 58.8877 19.7264 843.916
 328.87 68.7904 18.6973 998.961
 328 80.1809 15.7413 1056.75
 327.135 84.2236 12.5758 1007.32
 326.274 81.4042 9.91873 911.358
