 Energy(eV)     Sca_up     Sca_left
 442.801 25.5633 7.84921 1161.77
 441.225 25.7831 8.27484 1212.52
 439.66 26.069 8.72364 1266.39
 438.107 26.4328 9.1968 1323.64
 436.564 26.8882 9.69558 1384.55
 435.032 27.4515 10.2213 1449.44
 433.511 28.1414 10.7753 1518.66
 432 28.9799 11.3589 1592.57
 430.5 29.9927 11.9738 1671.58
 429.011 31.2097 12.6215 1756.1
 427.532 32.6655 13.3035 1846.6
 426.062 34.4007 14.0217 1943.55
 424.603 36.4619 14.7778 2047.43
 423.154 38.9027 15.5738 2158.7
 421.715 41.7848 16.4119 2277.83
 420.285 45.1778 17.2943 2405.19
 418.865 49.1599 18.2233 2541.09
 417.455 53.8172 19.2018 2685.65
 416.054 59.2431 20.2324 2838.77
 414.663 65.5353 21.3183 3000.01
 413.28 72.792 22.4626 3168.51
 411.907 81.1053 23.6685 3342.8
 410.544 90.5525 24.9392 3520.7
 409.189 101.183 26.2771 3699.17
 407.843 113.004 27.6841 3874.22
 406.505 125.963 29.1606 4040.86
 405.177 139.93 30.7049 4193.26
 403.857 154.685 32.3126 4324.96
 402.546 169.915 33.9762 4429.41
 401.243 185.217 35.6844 4500.61
 399.949 200.13 37.4229 4533.87
 398.663 214.166 39.1749 4526.56
 397.385 226.869 40.9227 4478.63
 396.115 237.858 42.6492 4392.79
 394.854 246.871 44.3405 4274.3
 393.6 253.784 45.9872 4130.28
 392.355 258.615 47.5857 3969.01
 391.117 261.498 49.1392 3798.95
 389.887 262.656 50.6574 3628.12
 388.665 262.367 52.1572 3463.57
 387.45 260.929 53.6616 3311.14
 386.243 258.636 55.2006 3175.46
 385.044 255.762 56.8112 3060.06
 383.852 252.551 58.5381 2967.64
 382.667 249.213 60.4353 2900.29
 381.49 245.929 62.5677 2859.81
 380.319 242.849 65.0146 2847.96
 379.156 240.1 67.8731 2866.69
 378 237.788 71.2635 2918.43
 376.851 236.003 75.3373 3006.28
 375.71 234.816 80.2868 3134.25
 374.574 234.279 86.3586 3307.52
 373.446 234.416 93.8713 3532.61
 372.325 235.209 103.237 3817.64
 371.21 236.579 114.981 4172.25
 370.102 238.348 129.752 4607.31
 369 240.207 148.275 5133.44
 367.905 241.684 171.169 5756.84
 366.817 242.147 198.419 6469.22
 365.735 240.909 228.267 7227.1
 364.659 237.501 255.614 7922.31
 363.59 232.054 271.618 8374.45
 362.527 225.366 267.798 8407.05
 361.47 218.251 243.465 7989.8
 360.419 210.817 207.123 7272.32
 359.374 202.651 169.216 6452.78
 358.336 193.428 136.052 5661.03
 357.303 183.16 109.539 4947.7
 356.276 172.094 89.2773 4319.6
 355.255 160.561 74.1555 3768.79
 354.24 148.923 63.0674 3287.18
 353.231 137.637 55.1113 2873.94
 352.228 127.437 49.5709 2541.55
 351.23 119.606 45.7571 2322.95
 350.238 116.211 42.7357 2273.36
 349.251 119.911 39.0993 2440.96
 348.27 132.941 33.4233 2780.86
 347.295 155.459 25.7122 3107.3
 346.324 185.452 17.729 3243.4
 345.36 221.586 11.1283 3176.6
 344.4 265.151 6.3788 3000.95
 343.446 319.069 3.28348 2815.93
 342.498 385.428 1.59745 2699.57
 341.554 461.845 1.22456 2713.33
 340.616 537.008 2.10895 2892.29
 339.683 590.265 3.94504 3210.75
 338.754 602.551 6.01688 3565.2
 337.831 572 7.55374 3830.99
 336.913 514.217 8.24171 3946.2
 336 448.024 8.22792 3924.95
 335.092 385.487 7.80278 3813.59
 334.189 331.449 7.1981 3654.79
 333.291 286.575 6.55144 3476.79
 332.397 249.833 5.93215 3295.46
 331.508 219.771 5.3705 3118.64
 330.624 195.015 4.8768 2949.69
 329.745 174.423 4.45226 2789.56
 328.87 157.087 4.0946 2637.99
 328 142.296 3.80106 2494.12
 327.135 129.495 3.57001 2356.89
 326.274 118.247 3.40203 2225.2
