 Energy(eV)     Sca_up     Sca_left
 442.801 11.8375 0.0507927 5.23458
 441.225 12.2008 0.0522732 5.36783
 439.66 12.5775 0.0538068 5.50537
 438.107 12.9684 0.0553962 5.64741
 436.564 13.3742 0.0570438 5.79414
 435.032 13.7954 0.0587526 5.94579
 433.511 14.233 0.0605255 6.10257
 432 14.6876 0.0623656 6.26473
 430.5 15.1603 0.0642764 6.43253
 429.011 15.6519 0.0662613 6.60624
 427.532 16.1633 0.0683244 6.78615
 426.062 16.6956 0.0704695 6.97257
 424.603 17.25 0.072701 7.16583
 423.154 17.8276 0.0750235 7.36627
 421.715 18.4297 0.0774419 7.57428
 420.285 19.0576 0.0799616 7.79025
 418.865 19.7127 0.0825881 8.0146
 417.455 20.3967 0.0853275 8.24779
 416.054 21.1112 0.0881862 8.49031
 414.663 21.8579 0.0911712 8.74268
 413.28 22.6388 0.0942898 9.00545
 411.907 23.4559 0.09755 9.27923
 410.544 24.3113 0.100961 9.56466
 409.189 25.2076 0.104531 9.86243
 407.843 26.1472 0.10827 10.1733
 406.505 27.1328 0.11219 10.498
 405.177 28.1675 0.116301 10.8375
 403.857 29.2545 0.120617 11.1927
 402.546 30.3972 0.12515 11.5646
 401.243 31.5993 0.129916 11.9543
 399.949 32.8651 0.134931 12.3629
 398.663 34.1988 0.140212 12.7918
 397.385 35.6054 0.145777 13.2424
 396.115 37.09 0.151648 13.7162
 394.854 38.6584 0.157847 14.2148
 393.6 40.3168 0.164397 14.74
 392.355 42.072 0.171326 15.2938
 391.117 43.9315 0.178664 15.8784
 389.887 45.9033 0.186442 16.4962
 388.665 47.9965 0.194695 17.1496
 387.45 50.2209 0.203462 17.8416
 386.243 52.5873 0.212785 18.5753
 385.044 55.1076 0.222713 19.3542
 383.852 57.795 0.233295 20.182
 382.667 60.6638 0.244591 21.063
 381.49 63.7302 0.256663 22.0018
 380.319 67.012 0.269582 23.0035
 379.156 70.5288 0.283426 24.0741
 378 74.3024 0.298282 25.2197
 376.851 78.3571 0.314246 26.4475
 375.71 82.7199 0.331427 27.7655
 374.574 87.4209 0.349944 29.1824
 373.446 92.4932 0.369931 30.7081
 372.325 97.9741 0.391537 32.3536
 371.21 103.905 0.414928 34.1311
 370.102 110.331 0.440288 36.0541
 369 117.303 0.467822 38.1376
 367.905 124.876 0.497754 40.398
 366.817 133.112 0.530328 42.8528
 365.735 142.073 0.565806 45.5207
 364.659 151.83 0.604462 48.4197
 363.59 162.452 0.646567 51.5661
 362.527 174.004 0.692364 54.9697
 361.47 186.544 0.742017 58.6257
 360.419 200.102 0.795521 62.4984
 359.374 214.67 0.852525 66.486
 358.336 230.175 0.912027 70.3487
 357.303 246.48 0.971884 73.5616
 356.276 263.551 1.02845 75.0599
 355.255 282.211 1.07838 73.0892
 354.24 306.073 1.12912 66.5784
 353.231 341.561 1.21511 59.9266
 352.228 388.831 1.36693 62.0252
 351.23 439.568 1.56173 73.4983
 350.238 489.171 1.76664 88.6305
 349.251 537.825 1.97093 103.924
 348.27 586.235 2.17381 118.324
 347.295 634.163 2.3744 131.541
 346.324 680.354 2.56903 143.301
 345.36 722.667 2.75099 153.148
 344.4 758.264 2.9111 160.427
 343.446 783.891 3.03869 164.355
 342.498 796.273 3.12268 164.174
 341.554 792.513 3.1507 159.493
 340.616 770.369 3.10248 151.16
 339.683 729.252 2.94604 142.208
 338.754 672.817 2.68506 134.427
 337.831 606.618 2.38714 124.34
 336.913 533.433 2.09166 110.084
 336 455.895 1.80179 93.3875
 335.092 379.29 1.52735 76.9703
 334.189 314.21 1.3058 64.4235
 333.291 278.776 1.20437 60.5276
 332.397 288.435 1.27718 67.8992
 331.508 328.443 1.46118 80.4377
 330.624 360.194 1.6032 87.7358
 329.745 365.418 1.63268 86.6683
 328.87 350.002 1.57654 80.1455
 328 324.12 1.47779 71.4931
 327.135 294.51 1.36187 63.2052
 326.274 265.39 1.23985 57.5615
