 Energy(eV)     Sca_up     Sca_left
 442.801 677.923 1.34164 10.1093
 441.225 697.23 1.36566 9.91087
 439.66 717.259 1.39009 9.763
 438.107 738.059 1.41493 9.67641
 436.564 759.68 1.44019 9.66359
 435.032 782.181 1.46588 9.73917
 433.511 805.628 1.49199 9.92018
 432 830.093 1.51854 10.2266
 430.5 855.66 1.54555 10.6816
 429.011 882.423 1.57302 11.3123
 427.532 910.487 1.60097 12.1503
 426.062 939.975 1.62945 13.232
 424.603 971.023 1.65848 14.6
 423.154 1003.79 1.68812 16.3029
 421.715 1038.45 1.71845 18.3965
 420.285 1075.2 1.74957 20.9441
 418.865 1114.27 1.78162 24.0168
 417.455 1155.91 1.81477 27.6931
 416.054 1200.39 1.84927 32.0578
 414.663 1248 1.88543 37.2002
 413.28 1299.05 1.92364 43.2103
 411.907 1353.85 1.96442 50.1727
 410.544 1412.68 2.00837 58.1589
 409.189 1475.79 2.05624 67.216
 407.843 1543.35 2.10889 77.3525
 406.505 1615.39 2.16731 88.5231
 405.177 1691.81 2.23251 100.613
 403.857 1772.28 2.30553 113.425
 402.546 1856.25 2.38732 126.676
 401.243 1942.98 2.47861 140.003
 399.949 2031.51 2.57986 152.984
 398.663 2120.81 2.69113 165.176
 397.385 2209.85 2.81212 176.159
 396.115 2297.72 2.94213 185.58
 394.854 2383.76 3.08023 193.194
 393.6 2467.59 3.22537 198.88
 392.355 2549.13 3.37652 202.646
 391.117 2628.6 3.5328 204.606
 389.887 2706.43 3.69356 204.96
 388.665 2783.23 3.85846 203.954
 387.45 2859.64 4.02741 201.859
 386.243 2936.35 4.20061 198.943
 385.044 3014.02 4.37844 195.46
 383.852 3093.23 4.56145 191.636
 382.667 3174.5 4.75032 187.672
 381.49 3258.27 4.94575 183.742
 380.319 3344.91 5.14846 179.997
 379.156 3434.68 5.35912 176.568
 378 3527.8 5.57826 173.574
 376.851 3624.38 5.80621 171.121
 375.71 3724.49 6.04294 169.306
 374.574 3828.09 6.288 168.215
 373.446 3935.07 6.54025 167.925
 372.325 4045.22 6.79768 168.486
 371.21 4158.2 7.05725 169.913
 370.102 4273.59 7.31469 172.162
 369 4390.83 7.56456 175.102
 367.905 4509.24 7.80067 178.487
 366.817 4628.06 8.01697 181.939
 365.735 4746.48 8.20906 184.952
 364.659 4863.62 8.37606 186.944
 363.59 4978.53 8.52235 187.346
 362.527 5090.09 8.65834 185.724
 361.47 5196.73 8.7997 181.88
 360.419 5296.18 8.96527 175.897
 359.374 5384.99 9.174 168.099
 358.336 5458.08 9.44124 158.969
 357.303 5508.16 9.77302 149.048
 356.276 5524.98 10.1591 138.866
 355.255 5494.68 10.5799 128.918
 354.24 5399.63 11.0417 119.695
 353.231 5220.73 11.5314 111.756
 352.228 4946.3 11.913 105.84
 351.23 4593.01 12 102.915
 350.238 4235.72 11.6208 104.005
 349.251 4010.26 10.7342 109.631
 348.27 4036.54 9.56341 119.344
 347.295 4314.41 8.49712 132.358
 346.324 4731.93 7.81068 148.866
 345.36 5163.75 7.55324 170.534
 344.4 5529.51 7.64069 200.038
 343.446 5790.09 7.96189 240.302
 342.498 5927.12 8.41784 293.197
 341.554 5933.29 8.91651 356.878
 340.616 5819.69 9.36112 421.933
 339.683 5631.31 9.66626 470.595
 338.754 5441.44 9.80959 485.673
 337.831 5309.02 9.85783 464.212
 336.913 5244.02 9.91413 418.534
 336 5220.38 10.0505 364.445
 335.092 5206.71 10.2941 312.463
 334.189 5181.67 10.6482 267.062
 333.291 5134.63 11.1113 229.096
 332.397 5061.91 11.687 197.878
 331.508 4963.42 12.3872 172.287
 330.624 4840.7 13.2343 151.22
 329.745 4695.86 14.2622 133.741
 328.87 4531.11 15.5208 119.094
 328 4348.64 17.0807 106.687
 327.135 4150.69 19.0424 96.0523
 326.274 3939.77 21.551 86.8272
