 Energy(eV)     Sca_U     Sca_D
 826.561 79.5967 15045
 821.087 82.1656 15563.2
 815.685 84.8051 16093.6
 810.354 87.5131 16636.3
 805.092 90.2876 17191.3
 799.898 93.126 17758.9
 794.77 96.0252 18339.2
 789.708 98.9819 18932.3
 784.71 101.992 19538.7
 779.774 105.053 20158.4
 774.901 108.158 20791.8
 770.088 111.304 21439.3
 765.334 114.486 22101.2
 760.639 117.698 22778
 756.001 120.934 23470.3
 751.419 124.19 24178.6
 746.892 127.46 24903.5
 742.42 130.737 25646
 738.001 134.015 26406.7
 733.634 137.29 27186.6
 729.318 140.555 27986.9
 725.053 143.806 28808.6
 720.838 147.037 29653.1
 716.671 150.244 30521.9
 712.553 153.424 31416.4
 708.481 156.573 32338.6
 704.455 159.69 33290.3
 700.475 162.773 34273.6
 696.54 165.825 35290.7
 692.649 168.845 36344.3
 688.801 171.839 37436.8
 684.995 174.813 38571.3
 681.232 177.773 39750.9
 677.509 180.731 40978.9
 673.827 183.701 42258.9
 670.185 186.697 43594.6
 666.581 189.742 44990.3
 663.017 192.857 46450
 659.49 196.071 47978.5
 656.001 199.416 49580.5
 652.548 202.929 51260.9
 649.132 206.652 53024.9
 645.751 210.633 54878
 642.405 214.927 56825.6
 639.094 219.592 58873.5
 635.816 224.698 61027.6
 632.572 230.317 63293.5
 629.361 236.532 65677.2
 626.183 243.432 68184.4
 623.036 251.115 70820.8
 619.921 259.686 73591.8
 616.837 269.259 76502.5
 613.783 279.957 79557.6
 610.759 291.91 82761
 607.765 305.255 86116.4
 604.801 320.14 89626.2
 601.865 336.714 93292
 598.957 355.138 97114.4
 596.078 375.573 101092
 593.226 398.186 105224
 590.401 423.144 109504
 587.603 450.617 113928
 584.831 480.771 118489
 582.085 513.768 123175
 579.365 549.763 127975
 576.67 588.903 132877
 574.001 631.323 137862
 571.355 677.144 142914
 568.735 726.469 148011
 566.138 779.383 153134
 563.564 835.952 158257
 561.014 896.217 163357
 558.487 960.198 168408
 555.983 1027.89 173385
 553.501 1099.27 178264
 551.041 1174.29 183018
 548.602 1252.89 187626
 546.186 1334.97 192065
 543.79 1420.46 196316
 541.415 1509.24 200363
 539.061 1601.21 204193
 536.728 1696.28 207795
 534.414 1794.33 211164
 532.121 1895.28 214297
 529.847 1999.08 217195
 527.592 2105.67 219864
 525.357 2215.03 222315
 523.14 2327.17 224558
 520.942 2442.15 226612
 518.762 2560.05 228495
 516.601 2680.99 230231
 514.457 2805.13 231844
 512.331 2932.69 233362
 510.223 3063.92 234815
 508.132 3199.13 236233
 506.058 3338.66 237651
 504.001 3482.91 239103
 501.96 3632.31 240625
 499.936 3787.37 242253
 497.928 3948.6 244025
 495.937 4116.58 245981
 493.961 4291.92 248159
 492.001 4475.26 250602
 490.056 4667.29 253349
 488.127 4868.67 256444
 486.212 5080.12 259927
 484.313 5302.31 263841
 482.429 5535.89 268227
 480.559 5781.46 273127
 478.703 6039.54 278578
 476.862 6310.49 284617
 475.035 6594.51 291274
 473.222 6891.59 298576
 471.423 7201.41 306541
 469.637 7523.28 315175
 467.865 7856.08 324473
 466.106 8198.19 334416
 464.36 8547.41 344962
 462.627 8900.89 356053
 460.908 9255.13 367602
 459.201 9605.94 379503
 457.506 9948.5 391618
 455.824 10277.4 403791
 454.154 10587 415839
 452.497 10871.2 427567
 450.851 11124.1 438769
 449.218 11340.2 449240
 447.596 11514.5 458787
 445.986 11643.1 467236
 444.388 11723.1 474445
 442.801 11753.1 480314
 441.225 11733.1 484788
 439.66 11664.3 487862
 438.107 11549.7 489583
 436.564 11392.9 490043
 435.032 11199 489379
 433.511 10973.5 487764
 432 10722.7 485397
 430.5 10453.4 482500
 429.011 10172.8 479304
 427.532 9888.77 476042
 426.062 9609.65 472944
 424.603 9344.85 470223
 423.154 9104.87 468071
 421.715 8901.65 466653
 420.285 8748.65 466101
 418.865 8660.85 466509
 417.455 8654.32 467934
 416.054 8745.29 470390
 414.663 8948.45 473840
 413.28 9274.17 478172
 411.907 9724.45 483171
 410.544 10287.8 488475
 409.189 10933.9 493533
 407.843 11610.7 497610
 406.505 12247 499845
 405.177 12762.9 499414
 403.857 13087.8 495734
 402.546 13179 488640
 401.243 13031.3 478430
 399.949 12675.1 465769
 398.663 12163.4 451494
 397.385 11556.5 436421
 396.115 10909.7 421234
 394.854 10267.5 406428
 393.6 9661.32 392329
 392.355 9111.39 379119
 391.117 8628.83 366881
 389.887 8218.1 355633
 388.665 7878.98 345354
 387.45 7607.9 336003
 386.243 7398.85 327533
 385.044 7243.77 319900
 383.852 7132.66 313065
 382.667 7053.53 306987
 381.49 6992.48 301618
 380.319 6934.24 296886
 379.156 6863.53 292691
 378 6767.36 288904
 376.851 6637.31 285374
 375.71 6470.97 281956
 374.574 6271.73 278527
 373.446 6047.07 275003
 372.325 5806.34 271341
 371.21 5558.73 267531
 370.102 5311.96 263590
 369 5071.85 259543
 367.905 4842.28 255424
 366.817 4625.57 251261
 365.735 4422.81 247081
 364.659 4234.28 242906
 363.59 4059.71 238751
 362.527 3898.54 234630
 361.47 3750.01 230549
 360.419 3613.32 226514
 359.374 3487.66 222529
 358.336 3372.25 218593
 357.303 3266.36 214707
 356.276 3169.33 210867
 355.255 3080.57 207072
 354.24 2999.56 203318
