 Energy(eV)     Sca_U     Sca_D
 826.561 173.366 7943.32
 821.087 176.538 8223.66
 815.685 179.846 8514.04
 810.354 183.294 8815.05
 805.092 186.886 9127.24
 799.898 190.626 9451.23
 794.77 194.516 9787.64
 789.708 198.56 10137.1
 784.71 202.76 10500.3
 779.774 207.12 10877.8
 774.901 211.642 11270.3
 770.088 216.328 11678.5
 765.334 221.179 12103.1
 760.639 226.198 12544.8
 756.001 231.385 13004.1
 751.419 236.741 13481.9
 746.892 242.267 13978.6
 742.42 247.963 14495
 738.001 253.828 15031.7
 733.634 259.861 15589.2
 729.318 266.062 16168.1
 725.053 272.427 16769
 720.838 278.956 17392.2
 716.671 285.644 18038.4
 712.553 292.489 18707.8
 708.481 299.486 19400.9
 704.455 306.631 20117.9
 700.475 313.919 20859.1
 696.54 321.344 21624.7
 692.649 328.9 22414.9
 688.801 336.581 23229.8
 684.995 344.38 24069.3
 681.232 352.289 24933.6
 677.509 360.302 25822.4
 673.827 368.411 26735.8
 670.185 376.609 27673.4
 666.581 384.888 28635.1
 663.017 393.241 29620.7
 659.49 401.662 30629.8
 656.001 410.144 31662
 652.548 418.684 32717.2
 649.132 427.276 33794.8
 645.751 435.918 34894.6
 642.405 444.61 36016.1
 639.094 453.353 37159.1
 635.816 462.149 38323.3
 632.572 471.005 39508.4
 629.361 479.929 40714.2
 626.183 488.933 41940.7
 623.036 498.032 43187.8
 619.921 507.246 44455.6
 616.837 516.599 45744.4
 613.783 526.118 47054.4
 610.759 535.838 48386.3
 607.765 545.797 49740.6
 604.801 556.039 51118.2
 601.865 566.615 52520.2
 598.957 577.581 53947.9
 596.078 589 55402.7
 593.226 600.943 56886.3
 590.401 613.486 58400.7
 587.603 626.714 59948
 584.831 640.717 61530.6
 582.085 655.595 63151.2
 579.365 671.451 64812.7
 576.67 688.4 66518.2
 574.001 706.559 68271
 571.355 726.057 70074.7
 568.735 747.024 71933
 566.138 769.599 73849.9
 563.564 793.926 75829.3
 561.014 820.152 77875.5
 558.487 848.429 79992.9
 555.983 878.913 82185.6
 553.501 911.759 84458.2
 551.041 947.126 86814.9
 548.602 985.171 89260.2
 546.186 1026.05 91798.1
 543.79 1069.92 94432.9
 541.415 1116.92 97168.2
 539.061 1167.19 100008
 536.728 1220.88 102955
 534.414 1278.1 106012
 532.121 1338.98 109183
 529.847 1403.6 112468
 527.592 1472.06 115870
 525.357 1544.42 119390
 523.14 1620.74 123029
 520.942 1701.05 126785
 518.762 1785.36 130659
 516.601 1873.68 134648
 514.457 1965.97 138753
 512.331 2062.19 142969
 510.223 2162.28 147294
 508.132 2266.15 151726
 506.058 2373.71 156259
 504.001 2484.85 160891
 501.96 2599.46 165619
 499.936 2717.42 170437
 497.928 2838.62 175344
 495.937 2962.95 180336
 493.961 3090.33 185412
 492.001 3220.71 190571
 490.056 3354.07 195814
 488.127 3490.45 201146
 486.212 3629.95 206569
 484.313 3772.75 212094
 482.429 3919.13 217730
 480.559 4069.47 223494
 478.703 4224.31 229405
 476.862 4384.32 235486
 475.035 4550.36 241767
 473.222 4723.46 248285
 471.423 4904.9 255081
 469.637 5096.19 262204
 467.865 5299.12 269712
 466.106 5515.77 277669
 464.36 5748.52 286149
 462.627 6000.07 295233
 460.908 6273.47 305008
 459.201 6572.07 315572
 457.506 6899.49 327022
 455.824 7259.61 339461
 454.154 7656.41 352987
 452.497 8093.85 367691
 450.851 8575.66 383649
 449.218 9105.04 400908
 447.596 9684.31 419482
 445.986 10314.4 439330
 444.388 10994.6 460350
 442.801 11721.5 482359
 441.225 12489.1 505089
 439.66 13288.3 528176
 438.107 14106.4 551172
 436.564 14927.8 573552
 435.032 15734.4 594749
 433.511 16506.7 614186
 432 17224.9 631324
 430.5 17870.8 645702
 429.011 18428.9 656980
 427.532 18888 664958
 426.062 19241.3 669587
 424.603 19486.9 670961
 423.154 19627.6 669296
 421.715 19669.6 664898
 420.285 19622.1 658128
 418.865 19496.1 649377
 417.455 19303.5 639033
 416.054 19056.2 627465
 414.663 18766.2 615007
 413.28 18444.5 601954
 411.907 18101 588555
 410.544 17744.9 575018
 409.189 17383.7 561510
 407.843 17023.8 548160
 406.505 16670.1 535065
 405.177 16325.9 522295
 403.857 15993.2 509895
 402.546 15672.2 497890
 401.243 15362.2 486290
 399.949 15061.2 475092
 398.663 14766.9 464286
 397.385 14476.5 453854
 396.115 14187.2 443778
 394.854 13896.7 434036
 393.6 13603.2 424610
 392.355 13305.3 415481
 391.117 13002.4 406635
 389.887 12694.1 398057
 388.665 12380.7 389735
 387.45 12062.5 381658
 386.243 11740.1 373816
 385.044 11414.3 366201
 383.852 11085.8 358803
 382.667 10755.5 351615
 381.49 10424.1 344629
 380.319 10092.4 337837
 379.156 9761.35 331231
 378 9431.62 324806
 376.851 9104.07 318553
 375.71 8779.51 312467
 374.574 8458.79 306540
 373.446 8142.79 300767
 372.325 7832.4 295144
 371.21 7528.53 289664
 370.102 7232.13 284325
 369 6944.12 279123
 367.905 6665.41 274057
 366.817 6396.9 269126
 365.735 6139.41 264332
 364.659 5893.7 259676
 363.59 5660.44 255164
 362.527 5440.22 250802
 361.47 5233.52 246598
 360.419 5040.76 242561
 359.374 4862.3 238705
 358.336 4698.45 235042
 357.303 4549.53 231590
 356.276 4415.88 228365
 355.255 4297.93 225390
 354.24 4196.22 222685
