 Energy(eV)     Sca_U     Sca_D
 826.561 29.2887 8087.4
 821.087 29.167 8371.03
 815.685 29.0256 8664.86
 810.354 28.8673 8969.47
 805.092 28.6957 9285.43
 799.898 28.515 9613.35
 794.77 28.3299 9953.83
 789.708 28.1459 10307.5
 784.71 27.9691 10675
 779.774 27.8065 11057.1
 774.901 27.6658 11454.3
 770.088 27.5555 11867.3
 765.334 27.4849 12296.8
 760.639 27.4643 12743.5
 756.001 27.5047 13208
 751.419 27.6182 13691
 746.892 27.8177 14193.1
 742.42 28.1172 14714.9
 738.001 28.5314 15257
 733.634 29.0763 15820
 729.318 29.7688 16404.4
 725.053 30.6266 17010.8
 720.838 31.6687 17639.5
 716.671 32.9149 18291.1
 712.553 34.3861 18965.9
 708.481 36.1041 19664.2
 704.455 38.0919 20386.4
 700.475 40.3731 21132.6
 696.54 42.9726 21903.1
 692.649 45.916 22697.9
 688.801 49.2298 23517.1
 684.995 52.9415 24360.8
 681.232 57.0793 25228.8
 677.509 61.6721 26121.1
 673.827 66.7496 27037.4
 670.185 72.3423 27977.7
 666.581 78.4811 28941.6
 663.017 85.1977 29928.7
 659.49 92.5242 30938.9
 656.001 100.493 31971.7
 652.548 109.137 33026.7
 649.132 118.49 34103.6
 645.751 128.586 35201.9
 642.405 139.457 36321.3
 639.094 151.139 37461.3
 635.816 163.665 38621.8
 632.572 177.07 39802.3
 629.361 191.388 41002.8
 626.183 206.652 42223
 623.036 222.898 43463
 619.921 240.159 44722.7
 616.837 258.47 46002.5
 613.783 277.864 47302.7
 610.759 298.374 48623.7
 607.765 320.035 49966.3
 604.801 342.879 51331.4
 601.865 366.939 52719.9
 598.957 392.249 54133.2
 596.078 418.841 55572.8
 593.226 446.747 57040.5
 590.401 475.999 58538.2
 587.603 506.628 60068.1
 584.831 538.667 61632.7
 582.085 572.145 63234.7
 579.365 607.094 64877.1
 576.67 643.543 66563.1
 574.001 681.522 68296.1
 571.355 721.06 70079.7
 568.735 762.184 71917.9
 566.138 804.922 73814.6
 563.564 849.301 75773.9
 561.014 895.345 77800.4
 558.487 943.08 79898.2
 555.983 992.528 82072
 553.501 1043.71 84326.2
 551.041 1096.65 86665.4
 548.602 1151.36 89094
 546.186 1207.87 91616.3
 543.79 1266.18 94236.6
 541.415 1326.31 96958.8
 539.061 1388.28 99786.6
 536.728 1452.1 102724
 534.414 1517.77 105773
 532.121 1585.32 108936
 529.847 1654.75 112217
 527.592 1726.08 115616
 525.357 1799.31 119136
 523.14 1874.48 122775
 520.942 1951.6 126534
 518.762 2030.7 130413
 516.601 2111.81 134410
 514.457 2195 138524
 512.331 2280.32 142751
 510.223 2367.85 147089
 508.132 2457.68 151534
 506.058 2549.94 156083
 504.001 2644.78 160732
 501.96 2742.37 165476
 499.936 2842.94 170311
 497.928 2946.74 175235
 495.937 3054.08 180244
 493.961 3165.32 185337
 492.001 3280.89 190511
 490.056 3401.27 195767
 488.127 3527.04 201109
 486.212 3658.84 206540
 484.313 3797.4 212069
 482.429 3943.58 217706
 480.559 4098.32 223465
 478.703 4262.69 229366
 476.862 4437.86 235432
 475.035 4625.17 241692
 473.222 4826.07 248182
 471.423 5042.16 254943
 469.637 5275.17 262025
 467.865 5526.99 269484
 466.106 5799.61 277385
 464.36 6095.13 285802
 462.627 6415.72 294817
 460.908 6763.57 304518
 459.201 7140.79 315003
 457.506 7549.34 326372
 455.824 7990.88 338729
 454.154 8466.57 352177
 452.497 8976.87 366808
 450.851 9521.24 382703
 449.218 10097.8 399915
 447.596 10703.2 418463
 445.986 11331.8 438313
 444.388 11975.8 459368
 442.801 12625.1 481456
 441.225 13266.6 504311
 439.66 13885.4 527579
 438.107 14464.8 550813
 436.564 14987 573493
 435.032 15435 595048
 433.511 15793.6 614899
 432 16050.8 632498
 430.5 16199.3 647374
 429.011 16236.8 659172
 427.532 16166.5 667679
 426.062 15996.5 672832
 424.603 15738.9 674710
 423.154 15408.2 673516
 421.715 15020.7 669547
 420.285 14592.4 663158
 418.865 14138.2 654735
 417.455 13671.4 644665
 416.054 13202.7 633318
 414.663 12740.5 621033
 413.28 12290.2 608108
 411.907 11855 594801
 410.544 11435.9 581327
 409.189 11032 567862
 407.843 10641.3 554542
 406.505 10261.2 541474
 405.177 9888.63 528732
 403.857 9520.98 516367
 402.546 9156.09 504406
 401.243 8792.65 492859
 399.949 8430.28 481723
 398.663 8069.49 470983
 397.385 7711.65 460619
 396.115 7358.68 450606
 394.854 7012.83 440920
 393.6 6676.41 431537
 392.355 6351.57 422435
 391.117 6040.14 413598
 389.887 5743.52 405008
 388.665 5462.71 396653
 387.45 5198.25 388522
 386.243 4950.36 380606
 385.044 4718.94 372896
 383.852 4503.64 365385
 382.667 4303.97 358066
 381.49 4119.27 350933
 380.319 3948.83 343980
 379.156 3791.88 337201
 378 3647.62 330590
 376.851 3515.22 324142
 375.71 3393.87 317852
 374.574 3282.75 311716
 373.446 3181.07 305729
 372.325 3088.04 299888
 371.21 3002.89 294190
 370.102 2924.89 288632
 369 2853.32 283214
 367.905 2787.55 277935
 366.817 2726.96 272796
 365.735 2671.05 267800
 364.659 2619.36 262951
 363.59 2571.56 258253
 362.527 2527.4 253715
 361.47 2486.77 249344
 360.419 2449.65 245152
 359.374 2416.14 241151
 358.336 2386.46 237354
 357.303 2360.93 233778
 356.276 2339.99 230441
 355.255 2324.16 227363
 354.24 2314.06 224567
