 Energy(eV)     Sca_U     Sca_D
 1239.84 45.0012 7739.93
 1227.57 46.7458 8160.18
 1215.53 48.5865 8597.58
 1203.73 50.5284 9052.4
 1192.16 52.5759 9524.91
 1180.8 54.7332 10015.3
 1169.66 57.0039 10523.9
 1158.73 59.391 11050.8
 1148 61.8969 11596.1
 1137.47 64.5232 12160.1
 1127.13 67.2708 12742.8
 1116.97 70.1395 13344.4
 1107 73.1283 13965.1
 1097.2 76.2352 14604.9
 1087.58 79.4571 15263.9
 1078.12 82.7898 15942.4
 1068.83 86.2281 16640.6
 1059.69 89.7654 17358.6
 1050.71 93.3941 18096.8
 1041.88 97.1055 18855.6
 1033.2 100.89 19635.4
 1024.66 104.736 20436.9
 1016.26 108.633 21260.8
 1008 112.568 22107.8
 999.872 116.527 22979.2
 991.873 120.498 23876.1
 984.001 124.466 24800.1
 976.253 128.417 25752.8
 968.626 132.339 26736.4
 961.117 136.218 27753.2
 953.724 140.042 28805.9
 946.444 143.803 29897.7
 939.274 147.491 31031.9
 932.212 151.102 32212.6
 925.255 154.633 33444.2
 918.401 158.087 34731.7
 911.648 161.47 36080.4
 904.994 164.795 37496.5
 898.436 168.08 38986.4
 891.972 171.352 40557.4
 885.601 174.645 42217.2
 879.32 178.002 43974.1
 873.128 181.48 45837
 867.022 185.143 47815.3
 861.001 189.071 49919.1
 855.063 193.357 52158.4
 849.206 198.11 54544
 843.43 203.454 57086.8
 837.731 209.53 59797.5
 832.108 216.5 62687
 826.561 224.54 65765.6
 821.087 233.85 69043.1
 815.685 244.646 72528.3
 810.354 257.162 76228.8
 805.092 271.653 80150.4
 799.898 288.387 84297.1
 794.77 307.647 88670
 789.708 329.726 93267.4
 784.71 354.925 98084.3
 779.774 383.546 103112
 774.901 415.887 108336
 770.088 452.236 113740
 765.334 492.867 119300
 760.639 538.025 124991
 756.001 587.93 130779
 751.419 642.758 136628
 746.892 702.647 142500
 742.42 767.684 148352
 738.001 837.905 154140
 733.634 913.295 159818
 729.318 993.791 165344
 725.053 1079.28 170676
 720.838 1169.63 175775
 716.671 1264.64 180608
 712.553 1364.14 185150
 708.481 1467.92 189379
 704.455 1575.8 193285
 700.475 1687.6 196863
 696.54 1803.19 200119
 692.649 1922.49 203064
 688.801 2045.48 205721
 684.995 2172.18 208116
 681.232 2302.71 210285
 677.509 2437.25 212267
 673.827 2576.08 214109
 670.185 2719.55 215859
 666.581 2868.09 217571
 663.017 3022.21 219301
 659.49 3182.49 221106
 656.001 3349.59 223047
 652.548 3524.23 225185
 649.132 3707.16 227581
 645.751 3899.16 230298
 642.405 4101.06 233398
 639.094 4313.62 236944
 635.816 4537.59 240996
 632.572 4773.62 245612
 629.361 5022.22 250846
 626.183 5283.69 256748
 623.036 5558.08 263358
 619.921 5845.06 270708
 616.837 6143.91 278815
 613.783 6453.34 287681
 610.759 6771.48 297286
 607.765 7095.78 307586
 604.801 7422.97 318509
 601.865 7749.02 329955
 598.957 8069.26 341791
 596.078 8378.4 353855
 593.226 8670.77 365956
 590.401 8940.53 377886
 587.603 9182 389422
 584.831 9389.97 400342
 582.085 9560.03 410437
 579.365 9688.93 419520
 576.67 9774.76 427443
 574.001 9817.16 434104
 571.355 9817.3 439454
 568.735 9777.9 443499
 566.138 9703.07 446301
 563.564 9598.17 447970
 561.014 9469.6 448663
 558.487 9324.71 448569
 555.983 9171.74 447906
 553.501 9019.8 446909
 551.041 8879.01 445819
 548.602 8760.7 444880
 546.186 8677.6 444329
 543.79 8644.1 444388
 541.415 8676.27 445266
 539.061 8791.7 447148
 536.728 9008.92 450192
 534.414 9346.06 454524
 532.121 9818.62 460211
 529.847 10435.9 467237
 527.592 11196.1 475450
 525.357 12080.2 484502
 523.14 13046.2 493798
 520.942 14027.2 502482
 518.762 14935.1 509501
 516.601 15675.1 513781
 514.457 16165.3 514467
 512.331 16358.1 511141
 510.223 16249.6 503916
 508.132 15876.9 493367
 506.058 15303.2 480337
 504.001 14600.7 465732
 501.96 13836.3 450361
 499.936 13064.4 434862
 497.928 12324.1 419685
 495.937 11641.4 405123
 493.961 11030.7 391342
 492.001 10498.7 378425
 490.056 10046 366400
 488.127 9669.28 355264
 486.212 9362.22 344998
 484.313 9116.28 335580
 482.429 8921 326982
 480.559 8764.22 319179
 478.703 8632.35 312133
 476.862 8511.01 305796
 475.035 8386.17 300101
 473.222 8245.75 294961
 471.423 8081.2 290273
 469.637 7888.45 285928
 467.865 7667.96 281822
 466.106 7423.86 277866
 464.36 7162.54 273993
 462.627 6891.18 270156
 460.908 6616.63 266330
 459.201 6344.69 262505
 457.506 6079.86 258680
 455.824 5825.31 254861
 454.154 5583.07 251057
 452.497 5354.24 247276
 450.851 5139.28 243527
 449.218 4938.14 239817
 447.596 4750.46 236153
 445.986 4575.71 232537
 444.388 4413.24 228974
 442.801 4262.36 225464
 441.225 4122.39 222009
 439.66 3992.66 218608
 438.107 3872.57 215260
 436.564 3761.54 211964
 435.032 3659.07 208719
 433.511 3564.72 205521
 432 3478.1 202368
 430.5 3398.91 199259
 429.011 3326.88 196191
 427.532 3261.84 193160
 426.062 3203.65 190164
 424.603 3152.29 187200
 423.154 3107.77 184266
 421.715 3070.24 181360
 420.285 3039.92 178478
 418.865 3017.15 175621
 417.455 3002.46 172785
 416.054 2996.51 169973
 414.663 3000.24 167184
 413.28 3014.88 164422
