 Energy(eV)     Sca_U     Sca_D
 1239.84 371.061 7413.87
 1227.57 379.628 7827.3
 1215.53 388.177 8257.99
 1203.73 396.716 8706.21
 1192.16 405.253 9172.23
 1180.8 413.798 9656.27
 1169.66 422.359 10158.5
 1158.73 430.948 10679.2
 1148 439.576 11218.4
 1137.47 448.252 11776.4
 1127.13 456.989 12353.1
 1116.97 465.798 12948.8
 1107 474.691 13563.5
 1097.2 483.68 14197.4
 1087.58 492.777 14850.6
 1078.12 501.993 15523.2
 1068.83 511.341 16215.4
 1059.69 520.832 16927.5
 1050.71 530.477 17659.7
 1041.88 540.29 18412.4
 1033.2 550.281 19186.1
 1024.66 560.464 19981.2
 1016.26 570.851 20798.5
 1008 581.455 21638.9
 999.872 592.291 22503.4
 991.873 603.375 23393.2
 984.001 614.723 24309.8
 976.253 626.355 25254.9
 968.626 638.292 26230.5
 961.117 650.558 27238.9
 953.724 663.18 28282.8
 946.444 676.191 29365.3
 939.274 689.626 30489.8
 932.212 703.526 31660.2
 925.255 717.938 32880.9
 918.401 732.915 34156.9
 911.648 748.518 35493.4
 904.994 764.816 36896.4
 898.436 781.885 38372.6
 891.972 799.811 39928.9
 885.601 818.691 41573.1
 879.32 838.63 43313.4
 873.128 859.746 45158.7
 867.022 882.164 47118.3
 861.001 906.024 49202.1
 855.063 931.472 51420.3
 849.206 958.668 53783.5
 843.43 987.775 56302.5
 837.731 1018.97 58988.1
 832.108 1052.43 61851.1
 826.561 1088.33 64901.8
 821.087 1126.85 68150.1
 815.685 1168.16 71604.8
 810.354 1212.44 75273.5
 805.092 1259.81 79162.3
 799.898 1310.41 83275
 794.77 1364.33 87613.3
 789.708 1421.62 92175.5
 784.71 1482.29 96957
 779.774 1546.29 101949
 774.901 1613.5 107138
 770.088 1683.74 112508
 765.334 1756.75 118037
 760.639 1832.19 123697
 756.001 1909.62 129457
 751.419 1988.54 135283
 746.892 2068.35 141135
 742.42 2148.4 146972
 738.001 2227.97 152750
 733.634 2306.3 158425
 729.318 2382.61 163955
 725.053 2456.11 169299
 720.838 2526.04 174418
 716.671 2591.69 179281
 712.553 2652.4 183861
 708.481 2707.61 188140
 704.455 2756.84 192104
 700.475 2799.75 195751
 696.54 2836.12 199086
 692.649 2865.85 202121
 688.801 2888.96 204877
 684.995 2905.62 207383
 681.232 2916.11 209671
 677.509 2920.82 211784
 673.827 2920.26 213765
 670.185 2915.03 215664
 666.581 2905.82 217534
 663.017 2893.42 219430
 659.49 2878.69 221410
 656.001 2862.56 223534
 652.548 2846.06 225863
 649.132 2830.26 228457
 645.751 2816.34 231380
 642.405 2805.53 234694
 639.094 2799.14 238459
 635.816 2798.53 242735
 632.572 2805.14 247581
 629.361 2820.44 253048
 626.183 2845.92 259186
 623.036 2883.07 266033
 619.921 2933.31 273620
 616.837 2997.97 281961
 613.783 3078.2 291056
 610.759 3174.87 300882
 607.765 3288.54 311393
 604.801 3419.29 322513
 601.865 3566.7 334138
 598.957 3729.74 346131
 596.078 3906.74 358326
 593.226 4095.37 370532
 590.401 4292.75 382534
 587.603 4495.52 394109
 584.831 4700.07 405032
 582.085 4902.79 415094
 579.365 5100.33 424108
 576.67 5289.95 431927
 574.001 5469.78 438451
 571.355 5639.08 443632
 568.735 5798.44 447478
 566.138 5949.82 450054
 563.564 6096.59 451472
 561.014 6243.37 451889
 558.487 6395.86 451498
 555.983 6560.45 450518
 553.501 6743.91 449185
 551.041 6952.9 447745
 548.602 7193.57 446447
 546.186 7471.2 445535
 543.79 7790.03 445242
 541.415 8153.41 445789
 539.061 8564.17 447375
 536.728 9025.34 450176
 534.414 9541.02 454329
 532.121 10116.9 459913
 529.847 10760 466913
 527.592 11477.7 475168
 525.357 12274.1 484308
 523.14 13145.7 493699
 520.942 14076.1 502433
 518.762 15032.3 509403
 516.601 15965.9 513490
 514.457 16820.1 513812
 512.331 17541.7 509957
 510.223 18092.3 502074
 508.132 18455 490789
 506.058 18633.1 477007
 504.001 18644.8 461688
 501.96 18515.7 445682
 499.936 18272.6 429653
 497.928 17940.3 414069
 495.937 17539.5 399225
 493.961 17087.8 385285
 492.001 16599.4 372325
 490.056 16086.8 360360
 488.127 15561.1 349372
 486.212 15033.2 339327
 484.313 14513.6 330182
 482.429 14013.3 321890
 480.559 13542.7 314400
 478.703 13111.6 307654
 476.862 12727.8 301579
 475.035 12396 296091
 473.222 12117 291090
 471.423 11887 286467
 469.637 11699 282118
 467.865 11543.4 277947
 466.106 11409.8 273880
 464.36 11288.7 269866
 462.627 11172.3 265875
 460.908 11054.7 261892
 459.201 10932.1 257918
 457.506 10802.4 253958
 455.824 10664.8 250022
 454.154 10519.1 246121
 452.497 10365.8 242264
 450.851 10205.7 238461
 449.218 10039.6 234716
 447.596 9868.36 231035
 445.986 9692.71 227420
 444.388 9513.39 223874
 442.801 9331.02 220396
 441.225 9146.11 216985
 439.66 8959.11 213642
 438.107 8770.38 210362
 436.564 8580.23 207146
 435.032 8388.93 203989
 433.511 8196.71 200889
 432 8003.76 197843
 430.5 7810.28 194848
 429.011 7616.45 191901
 427.532 7422.43 188999
 426.062 7228.44 186139
 424.603 7034.66 183318
 423.154 6841.33 180533
 421.715 6648.71 177781
 420.285 6457.1 175061
 418.865 6266.85 172371
 417.455 6078.39 169709
 416.054 5892.22 167077
 414.663 5708.95 164475
 413.28 5529.35 161908
