 Energy(eV)     Sca_U     Sca_D
 1239.84 132.401 4121.75
 1227.57 134.37 4339.83
 1215.53 136.428 4565.19
 1203.73 138.587 4798.16
 1192.16 140.86 5039.13
 1180.8 143.258 5288.53
 1169.66 145.793 5546.89
 1158.73 148.477 5814.8
 1148 151.321 6092.9
 1137.47 154.336 6381.94
 1127.13 157.532 6682.72
 1116.97 160.92 6996.14
 1107 164.508 7323.15
 1097.2 168.307 7664.79
 1087.58 172.325 8022.17
 1078.12 176.57 8396.45
 1068.83 181.051 8788.88
 1059.69 185.773 9200.72
 1050.71 190.744 9633.31
 1041.88 195.969 10088
 1033.2 201.453 10566.2
 1024.66 207.2 11069.4
 1016.26 213.213 11598.9
 1008 219.495 12156.1
 999.872 226.046 12742.4
 991.873 232.865 13359.1
 984.001 239.952 14007.6
 976.253 247.304 14689
 968.626 254.915 15404.4
 961.117 262.781 16154.9
 953.724 270.893 16941.4
 946.444 279.243 17764.6
 939.274 287.821 18625.2
 932.212 296.613 19523.6
 925.255 305.607 20460.2
 918.401 314.787 21435.1
 911.648 324.138 22448.3
 904.994 333.643 23499.6
 898.436 343.284 24588.7
 891.972 353.043 25715.1
 885.601 362.905 26878
 879.32 372.852 28076.8
 873.128 382.869 29310.6
 867.022 392.946 30578.4
 861.001 403.071 31879.2
 855.063 413.241 33212
 849.206 423.455 34575.9
 843.43 433.72 35969.9
 837.731 444.048 37393.4
 832.108 454.462 38845.7
 826.561 464.993 40326.4
 821.087 475.682 41835.6
 815.685 486.585 43373.4
 810.354 497.766 44940.6
 805.092 509.308 46538
 799.898 521.306 48167.4
 794.77 533.872 49830.7
 789.708 547.134 51530.4
 784.71 561.236 53269.8
 779.774 576.34 55052.4
 774.901 592.626 56882.4
 770.088 610.289 58764.8
 765.334 629.54 60704.6
 760.639 650.607 62707.8
 756.001 673.73 64780.6
 751.419 699.161 66929.4
 746.892 727.164 69161.1
 742.42 758.009 71482.8
 738.001 791.968 73901.4
 733.634 829.319 76424.2
 729.318 870.334 79057.8
 725.053 915.277 81809
 720.838 964.405 84683.7
 716.671 1017.95 87687.3
 712.553 1076.14 90824.7
 708.481 1139.16 94099.6
 704.455 1207.18 97514.7
 700.475 1280.31 101072
 696.54 1358.66 104771
 692.649 1442.25 108612
 688.801 1531.11 112591
 684.995 1625.18 116706
 681.232 1724.38 120952
 677.509 1828.57 125323
 673.827 1937.58 129812
 670.185 2051.22 134411
 666.581 2169.25 139114
 663.017 2291.44 143911
 659.49 2417.54 148797
 656.001 2547.34 153765
 652.548 2680.66 158812
 649.132 2817.37 163936
 645.751 2957.43 169139
 642.405 3100.93 174426
 639.094 3248.07 179809
 635.816 3399.27 185305
 632.572 3555.11 190938
 629.361 3716.47 196740
 626.183 3884.47 202752
 623.036 4060.57 209025
 619.921 4246.6 215621
 616.837 4444.76 222612
 613.783 4657.69 230085
 610.759 4888.47 238136
 607.765 5140.63 246875
 604.801 5418.13 256422
 601.865 5725.33 266905
 598.957 6066.87 278457
 596.078 6447.55 291209
 593.226 6872.1 305285
 590.401 7344.81 320788
 587.603 7869.2 337786
 584.831 8447.4 356301
 582.085 9079.57 376285
 579.365 9763.27 397604
 576.67 10492.8 420022
 574.001 11258.7 443195
 571.355 12047.8 466669
 568.735 12843.2 489895
 566.138 13625.3 512261
 563.564 14372.8 533136
 561.014 15064.7 551919
 558.487 15681.8 568095
 555.983 16208.5 581278
 553.501 16634 591237
 551.041 16952.7 597903
 548.602 17164.4 601362
 546.186 17273.5 601823
 543.79 17288 599588
 541.415 17218.3 595015
 539.061 17076.4 588483
 536.728 16874.4 580368
 534.414 16624.3 571023
 532.121 16337.1 560764
 529.847 16022.9 549864
 527.592 15690 538556
 525.357 15345.4 527028
 523.14 14994.5 515430
 520.942 14641.5 503880
 518.762 14289 492463
 516.601 13938.5 481245
 514.457 13590.7 470270
 512.331 13245.4 459566
 510.223 12902.3 449152
 508.132 12560.5 439038
 506.058 12219.4 429229
 504.001 11878.4 419724
 501.96 11537.1 410522
 499.936 11195.4 401621
 497.928 10853.6 393016
 495.937 10511.9 384704
 493.961 10171 376682
 492.001 9831.53 368945
 490.056 9494.23 361491
 488.127 9159.89 354316
 486.212 8829.34 347419
 484.313 8503.41 340796
 482.429 8182.95 334448
 480.559 7868.81 328373
 478.703 7561.87 322570
 476.862 7263.06 317040
 475.035 6973.36 311784
 473.222 6693.81 306803
 471.423 6425.55 302101
 469.637 6169.8 297679
 467.865 5927.89 293541
 466.106 5701.26 289692
 464.36 5491.45 286135
 462.627 5300.08 282877
 460.908 5128.85 279923
 459.201 4979.52 277279
 457.506 4853.82 274950
 455.824 4753.5 272944
 454.154 4680.19 271266
 452.497 4635.41 269922
 450.851 4620.52 268914
 449.218 4636.63 268247
 447.596 4684.56 267920
 445.986 4764.83 267930
 444.388 4877.53 268272
 442.801 5022.35 268936
 441.225 5198.49 269907
 439.66 5404.66 271166
 438.107 5639.04 272689
 436.564 5899.25 274448
 435.032 6182.43 276410
 433.511 6485.18 278537
 432 6803.68 280791
 430.5 7133.73 283131
 429.011 7470.87 285514
 427.532 7810.47 287898
 426.062 8147.86 290245
 424.603 8478.51 292515
 423.154 8798.11 294676
 421.715 9102.73 296698
 420.285 9388.87 298556
 418.865 9653.61 300231
 417.455 9894.58 301708
 416.054 10110 302980
 414.663 10298.7 304041
 413.28 10459.9 304893
