 Energy(eV)     Sca_U     Sca_D
 1239.84 27.2552 4226.9
 1227.57 27.6134 4446.59
 1215.53 27.9452 4673.67
 1203.73 28.2464 4908.5
 1192.16 28.513 5151.47
 1180.8 28.7414 5403.05
 1169.66 28.9284 5663.76
 1158.73 29.0713 5934.2
 1148 29.168 6215.05
 1137.47 29.2172 6507.06
 1127.13 29.2184 6811.04
 1116.97 29.1722 7127.89
 1107 29.0803 7458.58
 1097.2 28.9457 7804.16
 1087.58 28.7728 8165.72
 1078.12 28.5674 8544.46
 1068.83 28.3372 8941.59
 1059.69 28.0916 9358.4
 1050.71 27.842 9796.21
 1041.88 27.6019 10256.4
 1033.2 27.387 10740.3
 1024.66 27.2152 11249.4
 1016.26 27.1071 11785
 1008 27.0856 12348.5
 999.872 27.1763 12941.3
 991.873 27.4077 13564.6
 984.001 27.8108 14219.7
 976.253 28.4196 14907.9
 968.626 29.2708 15630.1
 961.117 30.4042 16387.3
 953.724 31.8621 17180.4
 946.444 33.69 18010.1
 939.274 35.9358 18877
 932.212 38.6503 19781.6
 925.255 41.887 20723.9
 918.401 45.7015 21704.2
 911.648 50.152 22722.3
 904.994 55.2987 23778
 898.436 61.2039 24870.8
 891.972 67.9315 26000.2
 885.601 75.5469 27165.4
 879.32 84.1169 28365.6
 873.128 93.7092 29599.8
 867.022 104.392 30866.9
 861.001 116.235 32166
 855.063 129.307 33495.9
 849.206 143.677 34855.6
 843.43 159.414 36244.2
 837.731 176.586 37660.8
 832.108 195.262 39104.9
 826.561 215.507 40575.9
 821.087 237.388 42073.9
 815.685 260.968 43599
 810.354 286.311 45152
 805.092 313.477 46733.9
 799.898 342.527 48346.2
 794.77 373.517 49991
 789.708 406.504 51671.1
 784.71 441.541 53389.5
 779.774 478.679 55150
 774.901 517.968 56957.1
 770.088 559.454 58815.6
 765.334 603.181 60731
 760.639 649.189 62709.3
 756.001 697.516 64756.8
 751.419 748.196 66880.3
 746.892 801.259 69087
 742.42 856.73 71384
 738.001 914.63 73778.8
 733.634 974.977 76278.5
 729.318 1037.78 78890.4
 725.053 1103.05 81621.2
 720.838 1170.79 84477.3
 716.671 1240.98 87464.3
 712.553 1313.64 90587.2
 708.481 1388.74 93850
 704.455 1466.29 97255.6
 700.475 1546.25 100806
 696.54 1628.64 104501
 692.649 1713.45 108340
 688.801 1800.69 112322
 684.995 1890.38 116441
 681.232 1982.57 120694
 677.509 2077.33 125074
 673.827 2174.77 129575
 670.185 2275.03 134187
 666.581 2378.32 138904
 663.017 2484.88 143718
 659.49 2595.05 148620
 656.001 2709.24 153604
 652.548 2827.94 158665
 649.132 2951.76 163802
 645.751 3081.41 169015
 642.405 3217.72 174309
 639.094 3361.68 179695
 635.816 3514.4 185190
 632.572 3677.14 190816
 629.361 3851.33 196605
 626.183 4038.55 202598
 623.036 4240.54 208845
 619.921 4459.18 215408
 616.837 4696.49 222361
 613.783 4954.59 229788
 610.759 5235.63 237789
 607.765 5541.77 246474
 604.801 5875.05 255965
 601.865 6237.25 266393
 598.957 6629.76 277894
 596.078 7053.3 290603
 593.226 7507.71 304649
 590.401 7991.59 320141
 587.603 8501.95 337154
 584.831 9033.92 355715
 582.085 9580.36 375784
 579.365 10131.7 397235
 576.67 10676 419839
 574.001 11199.2 443255
 571.355 11685.7 467031
 568.735 12119.3 490619
 566.138 12484.8 513402
 563.564 12769.1 534739
 561.014 12962.5 554021
 558.487 13060.2 570717
 555.983 13062.1 584425
 553.501 12973.1 594898
 551.041 12802.1 602054
 548.602 12561.1 605965
 546.186 12263.7 606833
 543.79 11923.6 604952
 541.415 11554 600679
 539.061 11166.3 594393
 536.728 10769.9 586473
 534.414 10372 577275
 532.121 9977.37 567123
 529.847 9589.06 556298
 527.592 9208.42 545037
 525.357 8835.7 533537
 523.14 8470.48 521954
 520.942 8112.06 510409
 518.762 7759.8 498993
 516.601 7413.36 487770
 514.457 7072.79 476788
 512.331 6738.61 466073
 510.223 6411.74 455643
 508.132 6093.46 445505
 506.058 5785.21 435663
 504.001 5488.52 426114
 501.96 5204.84 416854
 499.936 4935.44 407881
 497.928 4681.34 399188
 495.937 4443.29 390773
 493.961 4221.74 382631
 492.001 4016.86 374760
 490.056 3828.6 367156
 488.127 3656.7 359819
 486.212 3500.77 352747
 484.313 3360.27 345939
 482.429 3234.58 339396
 480.559 3123.04 333118
 478.703 3024.93 327107
 476.862 2939.48 321363
 475.035 2865.93 315891
 473.222 2803.48 310694
 471.423 2751.32 305775
 469.637 2708.63 301140
 467.865 2674.58 296794
 466.106 2648.32 292745
 464.36 2629.02 288998
 462.627 2615.86 285561
 460.908 2608.03 282444
 459.201 2604.75 279653
 457.506 2605.3 277199
 455.824 2608.97 275089
 454.154 2615.16 273331
 452.497 2623.29 271934
 450.851 2632.87 270902
 449.218 2643.45 270240
 447.596 2654.65 269950
 445.986 2666.12 270029
 444.388 2677.54 270472
 442.801 2688.61 271270
 441.225 2699.02 272406
 439.66 2708.49 273862
 438.107 2716.72 275612
 436.564 2723.38 277624
 435.032 2728.19 279864
 433.511 2730.82 282291
 432 2731 284864
 430.5 2728.46 287536
 429.011 2722.96 290262
 427.532 2714.34 292994
 426.062 2702.45 295690
 424.603 2687.23 298306
 423.154 2668.66 300806
 421.715 2646.78 303154
 420.285 2621.7 305323
 418.865 2593.59 307291
 417.455 2562.64 309040
 416.054 2529.12 310560
 414.663 2493.32 311846
 413.28 2455.59 312898
