 Energy(eV)     Ext_Z     Sca_Z     Ext_X     Sca_X
 442.801 49539.1 48942.9 28112.4 28199.6
 441.225 51537.2 50912.2 28656.4 28739
 439.66 53636.4 52981.2 29212 29289.7
 438.107 55841.8 55154.9 29779.7 29852.4
 436.564 58158.6 57438.4 30359.9 30427.5
 435.032 60592.1 59836.9 30953.4 31015.7
 433.511 63147.5 62355.7 31560.8 31617.7
 432 65830.3 65000.1 32183.2 32234.5
 430.5 68645.6 67775.2 32821.7 32867.2
 429.011 71598.7 70686 33477.6 33517.1
 427.532 74694.3 73737.5 34152.7 34186.1
 426.062 77937.2 76934.1 34849.3 34876.3
 424.603 81331.3 80279.8 35569.9 35590.3
 423.154 84880.1 83778.1 36318.1 36331.6
 421.715 88586.5 87431.7 37098.2 37104.5
 420.285 92452.1 91242.3 37915.7 37914.4
 418.865 96477.4 95210.4 38777.5 38768.1
 417.455 100662 99335.1 39692.1 39674.3
 416.054 105002 103614 40670.6 40643.6
 414.663 109495 108042 41726.2 41689.4
 413.28 114132 112614 42875.4 42827.9
 411.907 118904 117318 44138.1 44078.8
 410.544 123799 122143 45537.8 45465.3
 409.189 128801 127074 47101.5 47014.1
 407.843 133891 132090 48858.8 48754.7
 406.505 139044 137170 50840.7 50717.6
 405.177 144234 142285 53076.9 52932.1
 403.857 149428 147404 55591.7 55422.3
 402.546 154591 152492 58399.5 58202.2
 401.243 159683 157510 61499.6 61271.3
 399.949 164659 162413 64872.5 64610
 398.663 169472 167155 68478.6 68178.9
 397.385 174073 171687 72260.2 71920.9
 396.115 178408 175956 76148.5 75767.9
 394.854 182424 179910 80072.3 79649.4
 393.6 186069 183498 83967.9 83502.2
 392.355 189290 186667 87785.9 87277.6
 391.117 192040 189369 91495.8 90945.3
 389.887 194273 191562 95085.5 94493.6
 388.665 195950 193205 98558.9 97926.3
 387.45 197040 194267 101932 101259
 386.243 197516 194722 105227 104515
 385.044 197362 194555 108472 107719
 383.852 196569 193755 111693 110901
 382.667 195138 192324 114918 114086
 381.49 193075 190267 118172 117299
 380.319 190398 187600 121475 120560
 379.156 187125 184342 124849 123890
 378 183285 180519 128308 127305
 376.851 178903 176155 131868 130819
 375.71 174008 171275 135539 134442
 374.574 168623 165900 139332 138184
 373.446 162764 160042 143251 142052
 372.325 156444 153706 147301 146048
 371.21 149686 146907 151481 150172
 370.102 142559 139697 155786 154419
 369 135277 132267 160204 158779
 367.905 128434 125164 164719 163234
 366.817 123532 119813 169306 167761
 365.735 124135 119650 173936 172331
 364.659 137516 131805 178580 176917
 363.59 172408 165125 183215 181496
 362.527 221452 213105 187829 186054
 361.47 252850 244802 192417 190587
 360.419 254145 247229 196974 195087
 359.374 239775 233990 201472 199525
 358.336 222018 217092 205844 203832
 357.303 205457 201138 209959 207873
 356.276 191126 187229 213586 211415
 355.255 179002 175394 216332 214056
 354.24 168882 165460 217540 215113
 353.231 160661 157337 215867 213267
 352.228 154441 151123 209126 206224
 351.23 150654 147227 193725 190308
 350.238 150248 146547 167219 162962
 349.251 154791 150563 139623 134346
 348.27 164952 159952 135887 130043
 347.295 177699 171984 157083 151337
 346.324 191065 184763 182696 177284
 345.36 199976 193261 202935 197806
 344.4 196785 190036 217085 212128
 343.446 181721 175228 226218 221333
 342.498 161204 154955 230792 225892
 341.554 141193 134922 229982 225008
 340.616 127759 121082 221754 216718
 339.683 131704 124467 206345 201429
 338.754 158292 150938 192535 188014
 337.831 191533 184454 188163 184094
 336.913 215958 209267 189488 185735
 336 222379 216334 191321 187757
 335.092 212363 207119 191766 188320
 334.189 196102 191525 190594 187231
 333.291 179848 175701 188019 184723
 332.397 164057 160179 184308 181070
 331.508 147499 143878 179687 176503
 330.624 131067 127780 174336 171201
 329.745 116933 114008 168395 165304
 328.87 105782 103178 161971 158915
 328 97023 94675.9 155144 152112
 327.135 89882 87731.4 147972 144947
 326.274 83786.7 81782.7 140491 137445
