 Energy(eV)     Ext     Sca
 2.6 91.4197 45.8094
 2.61 93.7264 46.9836
 2.62 96.0262 48.2021
 2.63 98.3109 49.4686
 2.64 100.575 50.7864
 2.65 102.826 52.1569
 2.66 105.075 53.5808
 2.67 107.335 55.0588
 2.68 109.617 56.5914
 2.69 111.937 58.1789
 2.7 114.309 59.8214
 2.71 116.749 61.5187
 2.72 119.276 63.2703
 2.73 121.909 65.0755
 2.74 124.67 66.9331
 2.75 127.58 68.8414
 2.76 130.663 70.7995
 2.77 133.944 72.8099
 2.78 137.445 74.8763
 2.79 141.195 77.0032
 2.8 145.222 79.1951
 2.81 149.555 81.4574
 2.82 154.23 83.7959
 2.83 159.282 86.2171
 2.84 164.752 88.7281
 2.85 170.683 91.3368
 2.86 177.124 94.0519
 2.87 184.128 96.8831
 2.88 191.754 99.8411
 2.89 200.058 102.938
 2.9 209.063 106.185
 2.91 218.783 109.597
 2.92 229.235 113.188
 2.93 240.438 116.975
 2.94 252.414 120.978
 2.95 265.188 125.216
 2.96 278.788 129.714
 2.97 293.246 134.499
 2.98 308.599 139.602
 2.99 324.888 145.057
 3 342.159 150.904
 3.01 360.47 157.186
 3.02 379.898 163.94
 3.03 400.53 171.201
 3.04 422.459 179.008
 3.05 445.78 187.405
 3.06 470.595 196.436
 3.07 497.01 206.151
 3.08 525.134 216.603
 3.09 555.082 227.846
 3.1 586.968 239.941
 3.11 620.911 252.949
 3.12 657.028 266.935
 3.13 695.504 281.977
 3.14 736.847 298.202
 3.15 781.748 315.773
 3.16 831.056 334.882
 3.17 885.809 355.76
 3.18 947.287 378.681
 3.19 1017.08 403.978
 3.2 1097.16 432.055
 3.21 1190.03 463.406
 3.22 1298.87 498.637
 3.23 1427.76 538.501
 3.24 1582.03 583.939
 3.25 1768.7 636.13
 3.26 1996.78 696.542
 3.27 2276.58 766.886
 3.28 2621.27 849.268
 3.29 3048.32 946.31
 3.3 3580.91 1061.26
 3.31 4249.35 1198.02
 3.32 5091.48 1361.05
 3.33 6148.55 1554.64
 3.34 7449.3 1781.24
 3.35 8973.31 2038.39
 3.36 10609.8 2317.1
 3.37 12193.9 2608.16
 3.38 13666.6 2914.73
 3.39 15155.5 3247.64
 3.4 16805.7 3599.8
 3.41 18560.9 3924.79
 3.42 20078 4137.87
 3.43 20843.5 4148.35
 3.44 20507.2 3918.69
 3.45 19159.3 3501.23
 3.46 17248.4 3007.66
 3.47 15274.8 2542.36
 3.48 13528.6 2154.13
 3.49 12036.8 1833.78
 3.5 10705.9 1552.42
 3.51 9472.95 1298.05
 3.52 8344.74 1076.56
 3.53 7353.72 893.318
 3.54 6517.97 747.766
 3.55 5826.67 635.002
 3.56 5249.26 548.17
 3.57 4751.67 480.418
 3.58 4307.35 426.154
 3.59 3899.98 381.482
 3.6 3520.78 343.963
