 Energy(eV)     EyBz     EyBx     ExBz     ExBy
 2.8 212.694 131.673 241.84 162.771 293.01 194.153 308.229 209.493
 2.81 218.806 135.462 248.949 167.646 302.22 200.344 318.029 216.275
 2.82 225.148 139.39 256.324 172.703 311.808 206.785 328.233 223.335
 2.83 231.73 143.461 263.979 177.949 321.793 213.489 338.862 230.687
 2.84 238.565 147.685 271.929 183.394 332.199 220.473 349.941 238.346
 2.85 245.666 152.067 280.187 189.048 343.047 227.749 361.493 246.33
 2.86 253.047 156.617 288.77 194.921 354.363 235.335 373.546 254.656
 2.87 260.722 161.342 297.694 201.026 366.174 243.249 386.129 263.345
 2.88 268.706 166.253 306.977 207.372 378.509 251.509 399.271 272.416
 2.89 277.018 171.358 316.639 213.974 391.397 260.134 413.006 281.892
 2.9 285.674 176.668 326.699 220.845 404.873 269.148 427.369 291.798
 2.91 294.693 182.194 337.18 228 418.971 278.572 442.398 302.158
 2.92 304.097 187.948 348.104 235.453 433.73 288.432 458.135 313.001
 2.93 313.907 193.943 359.497 243.222 449.192 298.756 474.622 324.356
 2.94 324.146 200.192 371.385 251.324 465.4 309.571 491.909 336.255
 2.95 334.841 206.71 383.796 259.778 482.403 320.909 510.045 348.734
 2.96 346.017 213.512 396.761 268.605 500.254 332.804 529.088 361.83
 2.97 357.705 220.615 410.314 277.826 519.007 345.293 549.097 375.583
 2.98 369.935 228.038 424.488 287.465 538.725 358.416 570.137 390.037
 2.99 382.742 235.8 439.324 297.547 559.473 372.215 592.279 405.241
 3 396.163 243.921 454.86 308.1 581.325 386.738 615.601 421.246
 3.01 410.237 252.425 471.142 319.152 604.358 402.035 640.187 438.109
 3.02 425.006 261.336 488.218 330.736 628.659 418.162 666.127 455.891
 3.03 440.519 270.68 506.139 342.886 654.32 435.181 693.522 474.66
 3.04 456.825 280.486 524.96 355.639 681.444 453.156 722.481 494.488
 3.05 473.978 290.785 544.744 369.034 710.144 472.161 753.124 515.457
 3.06 492.04 301.612 565.554 383.117 740.542 492.275 785.582 537.654
 3.07 511.075 313.002 587.464 397.933 772.774 513.586 819.999 561.177
 3.08 531.153 324.997 610.55 413.534 806.988 536.19 856.534 586.131
 3.09 552.354 337.638 634.897 429.977 843.35 560.194 895.363 612.635
 3.1 574.763 350.976 660.599 447.323 882.04 585.713 936.678 640.817
 3.11 598.472 365.06 687.756 465.638 923.26 612.878 980.695 670.822
 3.12 623.585 379.95 716.479 484.996 967.234 641.833 1027.65 702.808
 3.13 650.216 395.708 746.89 505.477 1014.21 672.737 1077.81 736.952
 3.14 678.488 412.403 779.122 527.169 1064.46 705.768 1131.47 773.451
 3.15 708.541 430.112 813.323 550.168 1118.3 741.125 1188.95 812.524
 3.16 740.528 448.919 849.653 574.582 1176.08 779.03 1250.63 854.417
 3.17 774.619 468.918 888.294 600.529 1238.18 819.733 1316.92 899.406
 3.18 811.004 490.211 929.442 628.138 1305.04 863.513 1388.29 947.8
 3.19 849.895 512.915 973.319 657.555 1377.16 910.688 1465.25 999.948
 3.2 891.527 537.158 1020.17 688.939 1455.1 961.614 1548.41 1056.24
 3.21 936.168 563.083 1070.26 722.47 1539.49 1016.7 1638.43 1117.14
 3.22 984.115 590.852 1123.9 758.347 1631.06 1076.4 1736.09 1183.14
 3.23 1035.71 620.643 1181.44 796.794 1730.63 1141.24 1842.27 1254.82
 3.24 1091.33 652.662 1243.24 838.06 1839.16 1211.84 1957.96 1332.85
 3.25 1151.41 687.137 1309.75 882.426 1957.74 1288.87 2084.32 1418
 3.26 1216.45 724.329 1381.45 930.211 2087.63 1373.14 2222.69 1511.14
 3.27 1287.01 764.533 1458.89 981.772 2230.3 1465.58 2374.6 1613.3
 3.28 1363.75 808.089 1542.69 1037.52 2387.45 1567.26 2541.87 1725.64
 3.29 1447.41 855.381 1633.57 1097.91 2561.08 1679.43 2726.57 1849.56
 3.3 1538.88 906.855 1732.33 1163.47 2753.53 1803.56 2931.19 1986.66
 3.31 1639.17 963.024 1839.92 1234.82 2967.57 1941.39 3158.61 2138.85
 3.32 1749.47 1024.49 1957.4 1312.64 3206.47 2094.96 3412.27 2308.37
 3.33 1871.2 1091.93 2086.02 1397.73 3474.16 2266.7 3696.26 2497.89
 3.34 2006 1166.17 2227.22 1491.04 3775.31 2459.53 4015.46 2710.57
 3.35 2155.9 1248.17 2382.68 1593.62 4115.57 2676.92 4375.74 2950.25
 3.36 2323.28 1339.07 2554.37 1706.76 4501.79 2923.08 4784.18 3221.49
 3.37 2511.06 1440.2 2744.61 1831.93 4942.28 3203.1 5249.4 3529.86
 3.38 2722.81 1553.21 2956.13 1970.88 5447.25 3523.2 5781.87 3882.1
 3.39 2962.98 1680.06 3192.22 2125.69 6029.25 3890.96 6394.46 4286.45
 3.4 3237.1 1823.15 3456.77 2298.81 6703.82 4315.68 7102.94 4752.97
 3.41 3552.22 1985.45 3754.51 2493.2 7490.24 4808.83 7926.78 5294.03
 3.42 3917.43 2170.65 4091.14 2712.43 8412.51 5384.47 8889.97 5924.74
 3.43 4344.62 2383.38 4473.65 2960.8 9500.54 6059.87 10022 6663.57
 3.44 4849.68 2629.59 4910.64 3243.54 10791.5 6856.04 11358.9 7532.79
 3.45 5454.32 2916.94 5412.76 3567.05 12331 7798.08 12943.6 8558.75
 3.46 6188.87 3255.52 5993.32 3939.15 14174.2 8915 14826.3 9771.39
 3.47 7096.89 3658.81 6669.07 4369.39 16385.6 10238.2 17061.2 11202.2
 3.48 8242.67 4145.04 7461.18 4869.35 19035.3 11797.3 19699.8 12878.7
 3.49 9723.41 4739.11 8396.35 5452.68 22189.7 13610.7 22773.5 14813.3
 3.5 11687.3 5474.32 9507.87 6134.46 25890.8 15667.5 26262.2 16980.8
 3.51 14351.2 6390.92 10835.2 6928.47 30116.4 17897.3 30039.6 19284.6
 3.52 17970.3 7517.66 12418.6 7838.38 34705.4 20129.7 33805.2 21513
 3.53 22567.1 8793.8 14275.3 8833.8 39188 22049.6 37036.1 23313.7
 3.54 27135.6 9889.03 16329.5 9796.55 42466.2 23176.7 39046.2 24240.4
 3.55 29415.4 10191.4 18286.1 10475.5 43020 23001.8 39225.3 23914.5
 3.56 28372.6 9484.55 19780.3 10758.7 40615.9 21408.4 37377.5 22240.6
 3.57 25729.2 8633.97 21279.9 11302.2 36610.6 18792.3 33885.8 19496
 3.58 24159.9 8698.41 23789.7 12772.8 32298.7 15709.6 29531.3 16195.1
 3.59 24572.4 9589.2 27202.6 14749.1 28203.3 12627.9 25149.8 12860.2
 3.6 26197.4 10557.7 30413.9 16269.1 24161.2 9847.19 21423.9 9894.61
 3.61 27897.3 10873.8 32050.7 16453 20558.6 7598.11 18891.8 7610.6
 3.62 29365.1 10531.2 31889 15531.1 18336.7 6156.19 18010.1 6328.14
 3.63 32006.7 10711.4 32044.5 15402.5 17838.9 5753.25 18868.1 6303.75
 3.64 36807.8 12296.7 34305.2 17312.4 18350.6 6131.27 20320.3 7136.64
 3.65 41248.8 14462.3 37567.9 20222.9 18631.4 6392.54 20635.5 7634.27
 3.66 41764 15759.7 39610.7 22391.7 18886.2 6332.62 20287.2 7576.02
 3.67 39112 15812.2 39266.6 22911.5 20011.2 6689.54 20753.2 7940.27
 3.68 35330 15017.1 36786.2 21902.5 20899.9 7542.28 21329.8 8901.13
 3.69 30642.5 13655.3 33095.5 19973.5 19673.2 7952.29 20238.4 9379.16
 3.7 25708.8 11989.3 29029.1 17678.2 16982.5 7571.81 17753.9 8936.81
 3.71 21415.6 10325.6 25110 15378 14255.2 6798.59 15066.3 8024.27
 3.72 17984.1 8830.74 21597.7 13269.8 12029.6 5970.72 12740.8 7041.53
 3.73 15323.4 7549.82 18572 11428 10336.9 5220.24 10861.2 6147.5
 3.74 13313.8 6476.13 16017.5 9857.85 9098.91 4576.91 9362.14 5377.72
 3.75 11883.9 5588.91 13880.1 8534.39 8257.44 4036.6 8160.62 4725.15
 3.76 11013.6 4870.75 12095.9 7422.81 7790.8 3588.09 7188.36 4172.05
 3.77 10627.4 4312.12 10603.2 6488.28 7634.17 3219.3 6395.13 3700.48
 3.78 10280.2 3883.51 9347.31 5699.5 7452.35 2907.45 5746.59 3295.15
 3.79 9361.44 3502.15 8285.16 5030.15 6817.21 2618.13 5222.4 2944.33
 3.8 8135.58 3128.03 7385.02 4459.23 5961.54 2346.93 4815.49 2640.76
