 Energy(eV)     EyBz     EyBx     ExBz     ExBy
 2.8 31109.6 28272.1 26363.2 24964.8 33265 30700.1 41101.2 39056.9
 2.81 32310.6 29359.7 26963.5 25526.5 34214.6 31559.7 42054.4 39957.7
 2.82 33567.3 30497.1 27577.6 26101 35200.3 32451.2 43026.8 40876.2
 2.83 34882.3 31686.7 28205.9 26688.3 36224.1 33376.3 44018.2 41812.5
 2.84 36258.5 32931 28848.6 27288.6 37288.1 34336.8 45028.9 42766.6
 2.85 37699 34232.7 29505.9 27902 38394.5 35334.6 46058.6 43738.3
 2.86 39206.8 35594.2 30177.9 28528.8 39545.7 36371.7 47107.4 44727.7
 2.87 40785.1 37018.5 30864.9 29168.9 40744.1 37450.2 48175.2 45734.6
 2.88 42437.2 38508.1 31566.9 29822.5 41992.6 38572.6 49261.8 46758.7
 2.89 44166.4 40066.1 32284.1 30489.7 43294 39741.3 50366.9 47799.9
 2.9 45976.2 41695.3 33016.6 31170.2 44651.3 40959 51490.2 48857.8
 2.91 47870.1 43398.5 33764.3 31864.2 46067.9 42228.3 52631.4 49931.9
 2.92 49851.7 45178.6 34527.2 32571.4 47547.2 43552.3 53790 51021.8
 2.93 51924.5 47038.5 35305.2 33291.7 49092.9 44934.3 54965.4 52127
 2.94 54092 48981.1 36098.1 34024.6 50709 46377.4 56156.9 53246.7
 2.95 56358 51009 36905.5 34769.8 52399.7 47885.4 57363.8 54380.1
 2.96 58725.9 53124.8 37727.1 35526.8 54169.3 49461.8 58585.1 55526.3
 2.97 61199.2 55331.2 38562.4 36294.7 56022.5 51110.8 59819.9 56684.3
 2.98 63781.4 57630.4 39410.6 37072.8 57964.3 52836.4 61066.8 57852.9
 2.99 66475.8 60024.7 40270.8 37860.1 59999.8 54642.9 62324.7 59030.7
 3 69285.8 62515.9 41142.1 38655.1 62134.3 56534.8 63592 60216.2
 3.01 72214.6 65105.9 42023.2 39456.4 64373.6 58516.9 64866.9 61407.7
 3.02 75265.6 67796.3 42912.5 40262.2 66723.3 60593.9 66147.7 62603.4
 3.03 78442.2 70588.6 43808.2 41070.2 69189.5 62770.7 67432.2 63801.2
 3.04 81748 73484.2 44708.2 41877.8 71778.2 65052.4 68718 64998.6
 3.05 85187.1 76484.6 45609.9 42682.1 74495.8 67444 70002.6 66193.2
 3.06 88764.1 79591.7 46510.3 43479.4 77348.4 69950.5 71283.2 67382.2
 3.07 92484.9 82807.5 47406.3 44265.7 80342.5 72576.9 72556.6 68562.3
 3.08 96356.5 86135.3 48293.8 45036.3 83484.2 75328 73819.5 69730.2
 3.09 100388 89579.3 49168.7 45785.6 86779.7 78208.6 75068.1 70882.1
 3.1 104592 93145.6 50026 46507.6 90235 81222.9 76298.2 72014
 3.11 108982 96842.4 50860.7 47195.5 93855.8 84375.1 77505.6 73121.4
 3.12 113579 100681 51667.5 47841.6 97647.4 87668.8 78685.4 74199.5
 3.13 118408 104676 52440.8 48438.2 101615 91107.1 79832.3 75242.9
 3.14 123497 108847 53176 48977.1 105763 94692.6 80940.8 76246.1
 3.15 128885 113217 53869.4 49450.8 110095 98427.1 82004.8 77202.8
 3.16 134613 117812 54520.2 49853.2 114615 102311 83017.8 78106.4
 3.17 140727 122660 55131.8 50181.6 119324 106345 83972.7 78949.5
 3.18 147273 127791 55714.8 50439.1 124224 110527 84862 79724.5
 3.19 154288 133223 56291 50638.6 129313 114853 85677.7 80422.9
 3.2 161789 138958 56898.8 50808.1 134588 119318 86411.2 81035.6
 3.21 169752 144965 57599.2 50998.1 140043 123911 87053.3 81553
 3.22 178085 151159 58483.9 51289.7 145664 128619 87594.4 81964.5
 3.23 186598 157376 59679.6 51802 151434 133421 88024.1 82258.8
 3.24 194966 163353 61347.8 52695.4 157324 138289 88331.7 82424
 3.25 202726 168722 63672.2 54162.7 163294 143181 88505.7 82446.9
 3.26 209301 173038 66828.1 56402.8 169286 148042 88534.6 82314
 3.27 214098 175855 70934.5 59574.6 175224 152800 88406.1 82010.3
 3.28 216655 176840 76002.5 63740.2 181003 157357 88108.1 81520.5
 3.29 216786 175881 81903.8 68824.2 186489 161592 87628.8 80828.5
 3.3 214657 173129 88383.6 74613.4 191516 165355 86956.9 79917.6
 3.31 210721 168935 95118.4 80804.4 195883 168466 86083 78771.5
 3.32 205544 163705 101792 87077.5 199363 170723 85000.4 77374.8
 3.33 199603 157739 108155 93161.1 201707 171909 83707.6 75714.6
 3.34 193137 151119 114049 98864.7 202672 171811 82210.6 73782.9
 3.35 186085 143673 119400 104079 202040 170243 80528.3 71580.1
 3.36 178110 135003 124192 108754 199664 167081 78698.2 69121.3
 3.37 168699 124601 128440 112880 195507 162300 76786.4 66444.4
 3.38 157356 112051 132170 116453 189706 156028 74900.4 63622.9
 3.39 143930 97372.3 135397 119464 182631 148584 73204.5 60782.2
 3.4 129067 81477.1 138112 121875 174927 140504 71936.6 58118.6
 3.41 114580 66466.8 140269 123601 167476 132467 71418.2 55915.5
 3.42 103214 55237.5 141763 124477 161216 125092 72044.7 54542.8
 3.43 97505.7 50148.9 142401 124224 156851 118668 74236 54421.9
 3.44 98446 51675.4 141867 122388 154648 113010 78342.5 55945.1
 3.45 105254 58374.5 139727 118346 154305 107455 84546.2 59394.5
 3.46 116342 68072.3 135660 111623 154553 100841 92859.5 64992.4
 3.47 130408 79071.3 130425 103231 152776 91847.3 103182 73088.3
 3.48 146781 90650.1 127355 97801.5 147080 80906.2 114929 83792.5
 3.49 164080 102163 130318 100895 140881 72153 126393 95766.7
 3.5 177864 111126 137842 110753 140978 70753.9 135608 106610
 3.51 181971 114211 145302 121061 148097 77794.7 141808 114854
 3.52 174212 110902 150508 128662 153740 87773.1 145295 120373
 3.53 159152 103996 153568 133506 150881 93576.1 146691 123628
 3.54 142770 96281.3 155174 136399 141515 93736.3 146578 125161
 3.55 128055 88987.8 155876 138027 130286 90542.1 145407 125430
 3.56 115671 82430.7 155987 138814 119697 86047.3 143507 124783
 3.57 105415 76598.2 155671 139002 110453 81264 141111 123479
 3.58 96892.1 71379.4 155013 138727 102534 76574.3 138381 121703
 3.59 89731.7 66646.2 154061 138071 95739.7 72087.1 135430 119586
 3.6 83648.8 62283 152850 137092 89878.5 67811.4 132343 117226
 3.61 78449.8 58197.6 151412 135830 84824.7 63734.1 129178 114693
 3.62 74032.1 54326.2 149777 134319 80544.9 59863 125977 112037
 3.63 70396.6 50646.7 147980 132588 77133.2 56273.7 122770 109295
 3.64 67686.3 47213.2 146057 130664 74871 53186.4 119582 106496
 3.65 66266.4 44234.1 144051 128565 74296.1 51087.6 116435 103660
 3.66 66834.1 42206.6 142001 126298 76139.7 50813.7 113351 100805
 3.67 70408.5 42000.6 139917 123843 80771.5 53223.5 110359 97948.6
 3.68 77788.2 44543.4 137712 121120 87167.9 58081.1 107498 95111.2
 3.69 88113.4 49908.4 135086 117979 93150.9 63467.5 104824 92321.4
 3.7 97271.7 56340.1 131591 114331 97562.7 67524.3 102407 89620.5
 3.71 99814.2 60604.8 127178 110400 100652 69870.6 100317 87058.2
 3.72 95072.9 60975 122492 106592 102032 70631 98554.8 84662.3
 3.73 87033.3 58548.2 118137 103072 100095 69533.1 97030.1 82402
 3.74 79096.9 55051.9 114280 99770.6 94486.8 66630.7 95687.6 80230.6
 3.75 72653.9 51537.9 110891 96598.6 87271.3 62859.6 94516.3 78120.6
 3.76 67959 48546.9 107882 93527.3 80619.3 59186 93254.8 75909
 3.77 64396.9 46262.8 104954 90542.7 75414 55984.2 91493 73265.7
 3.78 60816 44259.8 101709 87553 71670.8 53153.9 89391.2 70100.1
 3.79 57127.4 42078.1 98261.6 84483.9 69018.5 50349.4 88018.6 67036
 3.8 53959.8 39774.9 94932.7 81362.6 66545.1 47084.6 88683.8 65545.7
