 Energy(eV)     EyBz     EyBx     ExBz     ExBy
 2.8 1594.36 1263.13 2110.27 1807.79 2574.48 2171.32 2953.73 2550.43
 2.81 1642.59 1300.84 2173.71 1862.23 2658.75 2242.32 3052.63 2636.07
 2.82 1692.77 1340.04 2239.54 1918.72 2746.58 2316.3 3155.74 2725.34
 2.83 1745.01 1380.81 2307.89 1977.34 2838.18 2393.41 3263.3 2818.44
 2.84 1799.41 1423.23 2378.89 2038.22 2933.76 2473.84 3375.55 2915.57
 2.85 1856.11 1467.39 2452.67 2101.45 3033.53 2557.76 3492.77 3016.98
 2.86 1915.22 1513.4 2529.36 2167.17 3137.76 2645.38 3615.23 3122.89
 2.87 1976.9 1561.35 2609.13 2235.5 3246.68 2736.92 3743.24 3233.57
 2.88 2041.3 1611.35 2692.13 2306.57 3360.59 2832.6 3877.12 3349.3
 2.89 2108.56 1663.54 2778.53 2380.53 3479.78 2932.66 4017.23 3470.38
 2.9 2178.88 1718.03 2868.53 2457.54 3604.58 3037.39 4163.94 3597.13
 2.91 2252.43 1774.96 2962.31 2537.76 3735.32 3147.05 4317.66 3729.9
 2.92 2329.42 1834.49 3060.08 2621.36 3872.39 3261.95 4478.81 3869.05
 2.93 2410.06 1896.78 3162.07 2708.54 4016.19 3382.43 4647.87 4014.98
 2.94 2494.6 1961.99 3268.52 2799.5 4167.14 3508.84 4825.34 4168.12
 2.95 2583.28 2030.33 3379.68 2894.45 4325.72 3641.56 5011.76 4328.94
 2.96 2676.39 2101.99 3495.83 2993.63 4492.42 3781.01 5207.71 4497.94
 2.97 2774.23 2177.19 3617.26 3097.28 4667.81 3927.64 5413.84 4675.65
 2.98 2877.13 2256.18 3744.3 3205.67 4852.47 4081.92 5630.82 4862.66
 2.99 2985.43 2339.21 3877.27 3319.08 5047.03 4244.39 5859.39 5059.59
 3 3099.53 2426.57 4016.56 3437.83 5252.21 4415.61 6100.35 5267.14
 3.01 3219.86 2518.58 4162.55 3562.25 5468.76 4596.2 6354.58 5486.03
 3.02 3346.88 2615.55 4315.67 3692.69 5697.49 4786.83 6623.02 5717.07
 3.03 3481.1 2717.88 4476.37 3829.54 5939.32 4988.23 6906.68 5961.13
 3.04 3623.08 2825.95 4645.16 3973.21 6195.2 5201.19 7206.68 6219.16
 3.05 3773.43 2940.23 4822.57 4124.16 6466.22 5426.58 7524.24 6492.18
 3.06 3932.84 3061.19 5009.18 4282.87 6753.52 5665.33 7860.66 6781.31
 3.07 4102.05 3189.37 5205.62 4449.87 7058.39 5918.48 8217.38 7087.77
 3.08 4281.89 3325.38 5412.57 4625.72 7382.22 6187.15 8595.97 7412.88
 3.09 4473.3 3469.87 5630.78 4811.06 7726.54 6472.56 8998.12 7758.09
 3.1 4677.28 3623.57 5861.04 5006.55 8093 6776.07 9425.72 8124.97
 3.11 4894.99 3787.29 6104.23 5212.92 8483.46 7099.13 9880.77 8515.24
 3.12 5127.69 3961.95 6361.31 5430.98 8899.93 7443.38 10365.5 8930.79
 3.13 5376.84 4148.55 6633.32 5661.59 9344.62 7810.56 10882.4 9373.65
 3.14 5644.03 4348.23 6921.39 5905.69 9819.98 8202.63 11434 9846.07
 3.15 5931.08 4562.26 7226.77 6164.32 10328.7 8621.71 12023.3 10350.5
 3.16 6240.06 4792.08 7550.81 6438.61 10873.7 9070.15 12653.4 10889.5
 3.17 6573.28 5039.32 7895 6729.8 11458.3 9550.49 13327.7 11466.2
 3.18 6933.43 5305.82 8260.96 7039.24 12086.1 10065.6 14050.1 12083.5
 3.19 7323.52 5593.68 8650.5 7368.41 12761 10618.5 14824.7 12745
 3.2 7747.08 5905.32 9065.57 7718.94 13487.4 11212.6 15655.8 13454.3
 3.21 8208.11 6243.47 9508.33 8092.61 14270.2 11851.6 16548.2 14215.5
 3.22 8711.31 6611.33 9981.15 8491.38 15114.6 12539.5 17507.2 15032.9
 3.23 9262.1 7012.58 10486.7 8917.4 16026.6 13280.9 18538.3 15911.1
 3.24 9866.86 7451.51 11027.7 9373.04 17012.4 14080.4 19647.5 16854.9
 3.25 10533.1 7933.12 11607.5 9860.88 18079.3 14943.3 20840.9 17869.6
 3.26 11269.7 8463.32 12229.5 10383.8 19234.9 15875.2 22125 18960.4
 3.27 12087.1 9049.09 12897.6 10944.8 20487.6 16882 23506.6 20132.8
 3.28 12998.2 9698.72 13615.9 11547.4 21846.7 17970.2 24992.3 21392.2
 3.29 14018 10422.1 14389.1 12195.2 23322 19146.4 26588.5 22743.6
 3.3 15165.3 11231.3 15222.2 12892.4 24924.4 20417.6 28301.1 24191.6
 3.31 16462.7 12140.8 16120.8 13643.1 26665.4 21790.8 30135.2 25740
 3.32 17938.2 13168.2 17090.8 14452 28557.5 23273.4 32094.1 27391
 3.33 19626.3 14335.3 18138.6 15324 30613.9 24872.1 34178.8 29144.8
 3.34 21570.3 15668.6 19271 16264 32849.1 26593.9 36387.3 30998.5
 3.35 23823.8 17200.9 20495 17277 35278.6 28445 38712.8 32945.4
 3.36 26453.9 18972.5 21817.6 18367.6 37919.4 30430.9 41142.6 34973.6
 3.37 29543.6 21031.8 23245.5 19539.6 40790.8 32556.7 43656.6 37064.3
 3.38 33193.5 23436.2 24784.5 20795.1 43914.5 34826.5 46225.2 39190.6
 3.39 37519.7 26248.8 26438.3 22133.5 47314.5 37243.4 48807.7 41316.1
 3.4 42644.2 29530 28206.7 23549.3 51015.2 39808 51350.7 43393.1
 3.41 48664.9 33315.9 30083.2 25028.4 55031.8 42513.6 53787.6 45362.7
 3.42 55591 37573.4 32050 26543.1 59348.2 45333.7 56038.7 47154.6
 3.43 63226.2 42123.5 34070.5 28042.6 63868.3 48196.2 58013.6 48688.9
 3.44 71018.8 46548 36076.9 29437.8 68342.4 50941.4 59614.8 49880.1
 3.45 77998.9 50157 37951.3 30579 72309.7 53287.9 60744.5 50641.9
 3.46 83017.4 52148 39502.8 31226.5 75171.2 54868.1 61312.6 50894
 3.47 85286.7 51938.1 40459.8 31040.9 76470.2 55381.2 61245.5 50570
 3.48 84629.9 49320.5 40561.7 29694.1 76202.5 54769.1 60495.3 49623.9
 3.49 80973.4 44285.2 39935 27329.4 74840.7 53235 59045.9 48034.9
 3.5 74176.5 37261 39719.7 25343.7 73082.4 51098 56916.7 45809.6
 3.51 65572.6 30028.5 41744.3 26018.4 71622.6 48651.1 54163.3 42980.4
 3.52 58429.3 24969.1 46502.5 30037.2 71031.2 46090.6 50875.2 39601.7
 3.53 54879.3 22730.1 52582.6 35742.3 71381.2 43419.7 47176.7 35747.3
 3.54 54102.3 22143.1 58353.4 41188.6 71107 40227.7 43234.5 31513.6
 3.55 54297.4 22247.4 62820.2 45210.7 66983.7 35870.6 39284.4 27037.9
 3.56 56069.3 23650 65398 47149.8 58936 30620.2 35691.4 22553.5
 3.57 61000.4 26896.3 65710.6 46586.5 50639.9 25471.7 33054.7 18506.9
 3.58 68407.5 31303.1 63955.2 43744.9 44254.3 21022.2 32296.1 15734
 3.59 75497.4 35581.1 61910.7 40707.5 40143.2 17739.3 34358.2 15422.5
 3.6 79097.5 38556.1 62538.3 41064.5 38297.8 16135.4 38855.6 18024.8
 3.61 78001.6 39528.4 66084.4 45308 38557.8 16027.2 43206 21658.3
 3.62 73787.2 38532 69698.4 50129.4 41082.7 16921.6 46125.9 24386.8
 3.63 69271.8 36573.6 71468 53174.9 46172.1 19393.2 49405.6 27479.2
 3.64 65738.5 34778.4 71180.7 54119.5 51193.1 23121.6 52694.9 31612.6
 3.65 61247.4 33130.2 69298.2 53477.4 51589.2 25700.6 53405.8 34601.5
 3.66 54657.1 30936.4 66440.4 51843.9 47529.2 26009.3 51270.7 35244.9
 3.67 47842.6 28306 63059.5 49594.3 42281.2 24888.2 47679.6 34161.8
 3.68 42032.9 25652.7 59408.1 46969.1 37567.7 23233.1 43733.1 32237.8
 3.69 37339.2 23175.8 55656.5 44152.7 33731.4 21480.1 39943.9 30027.2
 3.7 33595 20926.4 51930.2 41282.1 30723.8 19804.3 36486.8 27802.2
 3.71 30675.2 18911.7 48316.7 38451.2 28477.3 18276.3 33393.2 25680.8
 3.72 28567.5 17146.7 44871.3 35720.8 27004.9 16938 30644.3 23706.1
 3.73 27392.9 15694.3 41624.5 33126.1 26418.9 15842.1 28205.2 21886.6
 3.74 27339 14702.2 38590.1 30684.5 26817.2 15065.4 26039.7 20215.6
 3.75 28208.1 14322.1 35773.3 28401.7 27743.9 14618.8 24117.5 18680
 3.76 28739.1 14295.9 33172.2 26274.2 27637.7 14213.5 22418.7 17265.4
 3.77 27961 13963.1 30775 24288.9 25651.9 13461.7 20939.2 15960
 3.78 26756.6 13240.8 28554.5 22426.7 23118 12453.9 19698.1 14761
 3.79 25493.4 12475.5 26475.6 20687.4 21256.5 11491.5 18730.1 13687.5
 3.8 23213.7 11703.4 24547 19115 20070.1 10738 17987.3 12773.2
