 Energy(eV)     Sca_U     Sca_D
 442.801 293.893 291.556
 441.225 302.1 299.698
 439.66 310.585 308.115
 438.107 319.359 316.82
 436.564 328.437 325.826
 435.032 337.831 335.145
 433.511 347.556 344.792
 432 357.626 354.783
 430.5 368.059 365.132
 429.011 378.87 375.858
 427.532 390.079 386.978
 426.062 401.704 398.51
 424.603 413.766 410.476
 423.154 426.286 422.897
 421.715 439.287 435.794
 420.285 452.794 449.194
 418.865 466.832 463.121
 417.455 481.43 477.602
 416.054 496.617 492.668
 414.663 512.424 508.35
 413.28 528.886 524.681
 411.907 546.038 541.696
 410.544 563.919 559.435
 409.189 582.57 577.938
 407.843 602.035 597.249
 406.505 622.363 617.415
 405.177 643.605 638.488
 403.857 665.815 660.521
 402.546 689.052 683.574
 401.243 713.382 707.71
 399.949 738.872 732.997
 398.663 765.598 759.51
 397.385 793.639 787.329
 396.115 823.084 816.54
 394.854 854.028 847.238
 393.6 886.573 879.524
 392.355 920.833 913.511
 391.117 956.928 949.32
 389.887 994.993 987.082
 388.665 1035.17 1026.94
 387.45 1077.63 1069.06
 386.243 1122.54 1113.61
 385.044 1170.09 1160.78
 383.852 1220.49 1210.79
 382.667 1273.99 1263.86
 381.49 1330.83 1320.25
 380.319 1391.31 1380.25
 379.156 1455.74 1444.16
 378 1524.47 1512.35
 376.851 1597.9 1585.2
 375.71 1676.48 1663.15
 374.574 1760.69 1746.69
 373.446 1851.08 1836.36
 372.325 1948.29 1932.8
 371.21 2053.03 2036.7
 370.102 2166.08 2148.86
 369 2288.37 2270.18
 367.905 2420.95 2401.7
 366.817 2564.99 2544.59
 365.735 2721.88 2700.24
 364.659 2893.2 2870.2
 363.59 3080.8 3056.3
 362.527 3286.82 3260.68
 361.47 3513.77 3485.84
 360.419 3764.63 3734.7
 359.374 4042.9 4010.76
 358.336 4352.76 4318.15
 357.303 4699.23 4661.87
 356.276 5088.38 5047.93
 355.255 5527.58 5483.63
 354.24 6025.89 5977.98
 353.231 6594.52 6542.09
 352.228 7247.49 7189.86
 351.23 8002.5 7938.88
 350.238 8882.21 8811.59
 349.251 9915.9 9837.06
 348.27 11142 11053.4
 347.295 12611.6 12511.3
 346.324 14393.4 14279
 345.36 16580.7 16448.9
 344.4 19300.4 19146.9
 343.446 22735.7 22555
 342.498 27183.5 26967.4
 341.554 33106.4 32843.2
 340.616 41202 40874.4
 339.683 52596.4 52178.3
 338.754 69175.8 68625.8
 337.831 94090.4 93342.2
 336.913 132134 131083
 336 187515 186024
 335.092 250044 248055
 334.189 274657 272473
 333.291 231215 229376
 332.397 159098 157833
 331.508 100622 99821.9
 330.624 64490.8 63978
 329.745 45657.3 45294.3
 328.87 40327.5 40006.8
 328 47176.1 46801
 327.135 59353.6 58881.7
 326.274 61329.5 60841.8
