 Energy(eV)     Sca_U     Sca_D
 442.801 3.49783 47.8996
 441.225 3.59551 49.2372
 439.66 3.6965 50.6201
 438.107 3.80093 52.0502
 436.564 3.90897 53.5297
 435.032 4.02078 55.0608
 433.511 4.13652 56.6457
 432 4.25637 58.2871
 430.5 4.38054 59.9874
 429.011 4.50922 61.7495
 427.532 4.64262 63.5764
 426.062 4.78098 65.4711
 424.603 4.92454 67.4369
 423.154 5.07354 69.4774
 421.715 5.22828 71.5964
 420.285 5.38903 73.7978
 418.865 5.55612 76.0858
 417.455 5.72986 78.465
 416.054 5.91061 80.9402
 414.663 6.09874 83.5166
 413.28 6.29466 86.1995
 411.907 6.4988 88.995
 410.544 6.71161 91.9093
 409.189 6.93359 94.9491
 407.843 7.16527 98.1217
 406.505 7.40721 101.435
 405.177 7.66002 104.897
 403.857 7.92435 108.517
 402.546 8.20092 112.304
 401.243 8.49049 116.269
 399.949 8.79386 120.424
 398.663 9.11194 124.78
 397.385 9.44569 129.35
 396.115 9.79614 134.149
 394.854 10.1644 139.192
 393.6 10.5518 144.497
 392.355 10.9595 150.08
 391.117 11.3891 155.963
 389.887 11.8422 162.167
 388.665 12.3204 168.716
 387.45 12.8257 175.636
 386.243 13.3601 182.955
 385.044 13.9261 190.705
 383.852 14.526 198.92
 382.667 15.1627 207.639
 381.49 15.8392 216.903
 380.319 16.559 226.76
 379.156 17.3258 237.261
 378 18.1439 248.463
 376.851 19.0178 260.432
 375.71 19.953 273.238
 374.574 20.9552 286.962
 373.446 22.0311 301.695
 372.325 23.1881 317.539
 371.21 24.4346 334.609
 370.102 25.7802 353.035
 369 27.2357 372.967
 367.905 28.8135 394.574
 366.817 30.5278 418.05
 365.735 32.3951 443.62
 364.659 34.4341 471.543
 363.59 36.6669 502.118
 362.527 39.1189 535.696
 361.47 41.82 572.686
 360.419 44.8057 613.572
 359.374 48.1176 658.925
 358.336 51.8055 709.427
 357.303 55.9291 765.896
 356.276 60.5606 829.321
 355.255 65.7879 900.903
 354.24 71.7187 982.119
 353.231 78.4863 1074.8
 352.228 86.2578 1181.22
 351.23 95.2438 1304.27
 350.238 105.714 1447.65
 349.251 118.017 1616.13
 348.27 132.609 1815.96
 347.295 150.1 2055.48
 346.324 171.307 2345.89
 345.36 197.34 2702.38
 344.4 229.709 3145.64
 343.446 270.596 3705.54
 342.498 323.532 4430.46
 341.554 394.025 5395.79
 340.616 490.378 6715.24
 339.683 625.991 8572.33
 338.754 823.315 11274.5
 337.831 1119.84 15335.1
 336.913 1572.62 21535.6
 336 2231.74 30561.7
 335.092 2975.94 40752.9
 334.189 3268.88 44764.4
 333.291 2751.85 37684.1
 332.397 1893.54 25930.3
 331.508 1197.57 16399.7
 330.624 767.549 10510.9
 329.745 543.399 7441.37
 328.87 479.965 6572.7
 328 561.476 7688.91
 327.135 706.409 9673.64
 326.274 729.926 9995.67
