 Energy(eV)     Sca_U     Sca_D
 442.801 0.0546537 0.748431
 441.225 0.0561799 0.769331
 439.66 0.0577578 0.790939
 438.107 0.0593896 0.813285
 436.564 0.0610777 0.836402
 435.032 0.0628246 0.860325
 433.511 0.0646331 0.885089
 432 0.0665058 0.910735
 430.5 0.0684459 0.937303
 429.011 0.0704565 0.964836
 427.532 0.072541 0.993381
 426.062 0.0747028 1.02299
 424.603 0.0769459 1.0537
 423.154 0.0792741 1.08559
 421.715 0.0816919 1.11869
 420.285 0.0842037 1.15309
 418.865 0.0868143 1.18884
 417.455 0.089529 1.22602
 416.054 0.0923532 1.26469
 414.663 0.0952928 1.30495
 413.28 0.0983541 1.34687
 411.907 0.101544 1.39055
 410.544 0.104869 1.43608
 409.189 0.108337 1.48358
 407.843 0.111957 1.53315
 406.505 0.115738 1.58492
 405.177 0.119688 1.63901
 403.857 0.123818 1.69557
 402.546 0.128139 1.75475
 401.243 0.132664 1.81671
 399.949 0.137404 1.88162
 398.663 0.142374 1.94968
 397.385 0.147589 2.02109
 396.115 0.153065 2.09608
 394.854 0.158819 2.17488
 393.6 0.164871 2.25776
 392.355 0.171242 2.345
 391.117 0.177955 2.43693
 389.887 0.185034 2.53386
 388.665 0.192506 2.63619
 387.45 0.200401 2.74431
 386.243 0.208752 2.85867
 385.044 0.217595 2.97976
 383.852 0.226969 3.10812
 382.667 0.236917 3.24436
 381.49 0.247488 3.38911
 380.319 0.258734 3.54312
 379.156 0.270716 3.7072
 378 0.283498 3.88224
 376.851 0.297154 4.06924
 375.71 0.311766 4.26934
 374.574 0.327425 4.48378
 373.446 0.344236 4.71399
 372.325 0.362314 4.96155
 371.21 0.38179 5.22826
 370.102 0.402815 5.51617
 369 0.425557 5.8276
 367.905 0.450211 6.16521
 366.817 0.476998 6.53203
 365.735 0.506173 6.93157
 364.659 0.538033 7.36786
 363.59 0.57292 7.8456
 362.527 0.611232 8.37025
 361.47 0.653438 8.94822
 360.419 0.700089 9.58706
 359.374 0.751837 10.2957
 358.336 0.80946 11.0848
 357.303 0.873892 11.9671
 356.276 0.94626 12.9581
 355.255 1.02794 14.0766
 354.24 1.1206 15.3456
 353.231 1.22635 16.7937
 352.228 1.34778 18.4565
 351.23 1.48818 20.3793
 350.238 1.65178 22.6195
 349.251 1.84401 25.252
 348.27 2.07202 28.3744
 347.295 2.34532 32.1169
 346.324 2.67668 36.6545
 345.36 3.08343 42.2246
 344.4 3.5892 49.1506
 343.446 4.22806 57.8991
 342.498 5.05519 69.2259
 341.554 6.15664 84.3092
 340.616 7.66215 104.926
 339.683 9.78112 133.943
 338.754 12.8643 176.164
 337.831 17.4975 239.612
 336.913 24.5721 336.493
 336 34.871 477.527
 335.092 46.4991 636.764
 334.189 51.0763 699.444
 333.291 42.9976 588.814
 332.397 29.5865 405.161
 331.508 18.7121 256.245
 330.624 11.993 164.233
 329.745 8.49061 116.271
 328.87 7.49946 102.698
 328 8.77306 120.139
 327.135 11.0376 151.151
 326.274 11.4051 156.182
