 Energy(eV)     Sca_U     Sca_D
 442.801 0.368347 51.0291
 441.225 0.378633 52.4541
 439.66 0.389267 53.9273
 438.107 0.400265 55.4509
 436.564 0.411642 57.027
 435.032 0.423416 58.6581
 433.511 0.435604 60.3466
 432 0.448226 62.0952
 430.5 0.461302 63.9066
 429.011 0.474853 65.7839
 427.532 0.488901 67.7301
 426.062 0.503471 69.7486
 424.603 0.518589 71.8429
 423.154 0.53428 74.0167
 421.715 0.550575 76.2741
 420.285 0.567504 78.6193
 418.865 0.585099 81.0568
 417.455 0.603395 83.5915
 416.054 0.622429 86.2284
 414.663 0.642241 88.9731
 413.28 0.662873 91.8313
 411.907 0.68437 94.8094
 410.544 0.706781 97.9141
 409.189 0.730157 101.153
 407.843 0.754555 104.532
 406.505 0.780032 108.062
 405.177 0.806655 111.75
 403.857 0.834492 115.606
 402.546 0.863617 119.641
 401.243 0.89411 123.866
 399.949 0.926057 128.292
 398.663 0.959554 132.932
 397.385 0.994699 137.801
 396.115 1.0316 142.913
 394.854 1.07039 148.286
 393.6 1.11118 153.937
 392.355 1.15412 159.886
 391.117 1.19936 166.153
 389.887 1.24706 172.762
 388.665 1.29742 179.739
 387.45 1.35064 187.111
 386.243 1.40692 194.908
 385.044 1.46652 203.164
 383.852 1.52969 211.916
 382.667 1.59674 221.205
 381.49 1.66798 231.074
 380.319 1.74378 241.575
 379.156 1.82453 252.762
 378 1.91068 264.696
 376.851 2.00271 277.447
 375.71 2.10119 291.09
 374.574 2.20673 305.711
 373.446 2.32003 321.406
 372.325 2.44187 338.285
 371.21 2.57313 356.47
 370.102 2.71483 376.1
 369 2.8681 397.334
 367.905 3.03426 420.353
 366.817 3.21479 445.363
 365.735 3.41142 472.604
 364.659 3.62615 502.351
 363.59 3.86127 534.924
 362.527 4.11947 570.695
 361.47 4.40392 610.102
 360.419 4.71833 653.659
 359.374 5.06709 701.975
 358.336 5.45544 755.777
 357.303 5.88968 815.936
 356.276 6.37741 883.504
 355.255 6.92786 959.763
 354.24 7.5524 1046.29
 353.231 8.26507 1145.02
 352.228 9.08343 1258.39
 351.23 10.0297 1389.49
 350.238 11.1322 1542.23
 349.251 12.4277 1721.71
 348.27 13.9644 1934.6
 347.295 15.8062 2189.77
 346.324 18.0394 2499.16
 345.36 20.7806 2878.93
 344.4 24.1891 3351.16
 343.446 28.4945 3947.65
 342.498 34.0688 4719.92
 341.554 41.4918 5748.32
 340.616 51.6382 7153.98
 339.683 65.9201 9132.41
 338.754 86.7034 12011.1
 337.831 117.939 16337
 336.913 165.633 22942.6
 336 235.055 32558.4
 335.092 313.432 43415.4
 334.189 344.284 47689
 333.291 289.834 40146.1
 332.397 199.436 27624.4
 331.508 126.133 17471.1
 330.624 80.8406 11197.6
 329.745 57.2316 7927.54
 328.87 50.55 7002.12
 328 59.1341 8191.25
 327.135 74.3979 10305.6
 326.274 76.8745 10648.7
