 Energy(eV)     Sca_U     Sca_D
 442.801 5.97356 1894.52
 441.225 6.08362 1946.02
 439.66 6.19675 1999.31
 438.107 6.31306 2054.48
 436.564 6.43268 2111.62
 435.032 6.55575 2170.83
 433.511 6.68241 2232.22
 432 6.81282 2295.89
 430.5 6.94713 2361.98
 429.011 7.08554 2430.6
 427.532 7.22823 2501.91
 426.062 7.3754 2576.03
 424.603 7.52727 2653.14
 423.154 7.68409 2733.4
 421.715 7.84611 2816.99
 420.285 8.01361 2904.12
 418.865 8.1869 2994.98
 417.455 8.36629 3089.8
 416.054 8.55216 3188.84
 414.663 8.74489 3292.35
 413.28 8.94491 3400.61
 411.907 9.1527 3513.94
 410.544 9.36877 3632.67
 409.189 9.59369 3757.16
 407.843 9.8281 3887.8
 406.505 10.0727 4025.01
 405.177 10.3282 4169.27
 403.857 10.5955 4321.07
 402.546 10.8757 4480.97
 401.243 11.1696 4649.57
 399.949 11.4786 4827.54
 398.663 11.804 5015.59
 397.385 12.1474 5214.54
 396.115 12.5103 5425.24
 394.854 12.8949 5648.68
 393.6 13.3034 5885.92
 392.355 13.7383 6138.14
 391.117 14.2024 6406.66
 389.887 14.6993 6692.94
 388.665 15.2328 6998.59
 387.45 15.8073 7325.44
 386.243 16.4282 7675.52
 385.044 17.1016 8051.11
 383.852 17.8346 8454.75
 382.667 18.6358 8889.35
 381.49 19.5151 9358.15
 380.319 20.4846 9864.86
 379.156 21.5584 10413.7
 378 22.7538 11009.4
 376.851 24.0913 11657.4
 375.71 25.5961 12364.1
 374.574 27.2987 13136.5
 373.446 29.2366 13982.9
 372.325 31.4561 14912.9
 371.21 34.0144 15937.6
 370.102 36.9831 17069.6
 369 40.4517 18323.8
 367.905 44.5333 19717.4
 366.817 49.3712 21270.3
 365.735 55.1481 23005.7
 364.659 62.0981 24950
 363.59 70.5223 27133.8
 362.527 80.8092 29591.4
 361.47 93.4613 32361
 360.419 109.128 35483.6
 359.374 128.648 39001.3
 358.336 153.094 42953.2
 357.303 183.824 47369.4
 356.276 222.523 52260.4
 355.255 271.219 57603.3
 354.24 332.241 63322.7
 353.231 408.085 69271.7
 352.228 501.157 75220.2
 351.23 613.408 80863.5
 350.238 745.971 85866.7
 349.251 898.995 89950
 348.27 1071.87 92995.6
 347.295 1263.75 95132
 346.324 1473.94 96748
 345.36 1701.07 98409.8
 344.4 1939.48 100668
 343.446 2170.37 103703
 342.498 2345.38 106717
 341.554 2376.18 107449
 340.616 2185.73 103472
 339.683 1814.88 95240.4
 338.754 1398.09 85853.3
 337.831 1037.3 78198.7
 336.913 766.431 73440.5
 336 582.788 70529.6
 335.092 475.603 68752.3
 334.189 421.226 68551.9
 333.291 378.945 68462.9
 332.397 326.724 66368.3
 331.508 271.026 62269
 330.624 221.199 57256.3
 329.745 180.25 52148.8
 328.87 147.635 47327.5
 328 121.835 42924.5
 327.135 101.358 38961.2
 326.274 84.984 35415.4
