 Energy(eV)     Sca_U     Sca_D
 442.801 2.29578 618.099
 441.225 2.33647 634.378
 439.66 2.37826 651.206
 438.107 2.42119 668.607
 436.564 2.46531 686.608
 435.032 2.51066 705.239
 433.511 2.5573 724.53
 432 2.60527 744.512
 430.5 2.65464 765.221
 429.011 2.70547 786.692
 427.532 2.75781 808.964
 426.062 2.81174 832.078
 424.603 2.86734 856.079
 423.154 2.92467 881.013
 421.715 2.98382 906.931
 420.285 3.04488 933.884
 418.865 3.10794 961.932
 417.455 3.17311 991.133
 416.054 3.24049 1021.56
 414.663 3.31019 1053.27
 413.28 3.38235 1086.34
 411.907 3.45708 1120.87
 410.544 3.53455 1156.92
 409.189 3.6149 1194.6
 407.843 3.69829 1234.01
 406.505 3.78491 1275.24
 405.177 3.87496 1318.44
 403.857 3.96863 1363.7
 402.546 4.06618 1411.19
 401.243 4.16783 1461.03
 399.949 4.27386 1513.4
 398.663 4.38457 1568.46
 397.385 4.50028 1626.41
 396.115 4.62134 1687.46
 394.854 4.74814 1751.82
 393.6 4.8811 1819.75
 392.355 5.02068 1891.52
 391.117 5.16742 1967.42
 389.887 5.32186 2047.77
 388.665 5.48464 2132.93
 387.45 5.65647 2223.3
 386.243 5.83812 2319.3
 385.044 6.03046 2421.43
 383.852 6.23446 2530.2
 382.667 6.45121 2646.21
 381.49 6.68195 2770.12
 380.319 6.92807 2902.67
 379.156 7.19113 3044.66
 378 7.47293 3197.01
 376.851 7.77551 3360.77
 375.71 8.10122 3537.09
 374.574 8.45276 3727.28
 373.446 8.83324 3932.84
 372.325 9.24628 4155.45
 371.21 9.69612 4397.05
 370.102 10.1877 4659.83
 369 10.727 4946.33
 367.905 11.3208 5259.46
 366.817 11.9775 5602.59
 365.735 12.707 5979.64
 364.659 13.5216 6395.14
 363.59 14.436 6854.43
 362.527 15.4683 7363.77
 361.47 16.6411 7930.54
 360.419 17.9826 8563.49
 359.374 19.5287 9273.05
 358.336 21.3248 10071.7
 357.303 23.4298 10974.3
 356.276 25.9207 11999.1
 355.255 28.8991 13167.8
 354.24 32.5008 14507.1
 353.231 36.9101 16049.2
 352.228 42.38 17833.5
 351.23 49.2627 19907.7
 350.238 58.0544 22329.3
 349.251 69.4627 25166.6
 348.27 84.5055 28498.3
 347.295 104.655 32410.4
 346.324 132.034 36987.4
 345.36 169.654 42291.2
 344.4 221.603 48317.7
 343.446 292.867 54905.5
 342.498 387.877 61550.7
 341.554 505.91 67082.3
 340.616 632.59 69546.4
 339.683 737.821 67737.9
 338.754 794.212 63897
 337.831 788.298 61753.8
 336.913 719.004 61797.9
 336 613.164 61307.8
 335.092 503.203 58014.1
 334.189 390.179 52146.9
 333.291 286.747 45360.7
 332.397 216.634 39640.6
 331.508 182.708 36486
 330.624 171.399 35860.7
 329.745 160.808 36465.4
 328.87 136.798 35935
 328 107.396 33395.5
 327.135 82.4949 29924.9
 326.274 63.9461 26442.5
