 Energy(eV)     Sca_U     Sca_D
 495.937 8.23254 5105.03
 493.961 8.40872 5308.73
 492.001 8.59872 5523.81
 490.056 8.80459 5751.08
 488.127 9.0287 5991.45
 486.212 9.27376 6245.89
 484.313 9.54289 6515.47
 482.429 9.83967 6801.35
 480.559 10.1682 7104.78
 478.703 10.5333 7427.14
 476.862 10.9405 7769.93
 475.035 11.3959 8134.79
 473.222 11.907 8523.51
 471.423 12.4821 8938.04
 469.637 13.1311 9380.53
 467.865 13.8651 9853.32
 466.106 14.6974 10359
 464.36 15.643 10900.3
 462.627 16.7196 11480.4
 460.908 17.9478 12102.5
 459.201 19.3514 12770.5
 457.506 20.9585 13488.3
 455.824 22.8015 14260.3
 454.154 24.9187 15091.4
 452.497 27.3545 15986.7
 450.851 30.1615 16951.9
 449.218 33.4008 17993.2
 447.596 37.1445 19117.2
 445.986 41.4774 20331
 444.388 46.4989 21642
 442.801 52.3259 23058.4
 441.225 59.0961 24588.2
 439.66 66.9708 26240.1
 438.107 76.1398 28022.3
 436.564 86.8252 29943.3
 435.032 99.2867 32010.7
 433.511 113.827 34231.1
 432 130.797 36609.6
 430.5 150.604 39149.2
 429.011 173.715 41849.7
 427.532 200.662 44707.5
 426.062 232.05 47714.1
 424.603 268.559 50856.1
 423.154 310.948 54114.7
 421.715 360.058 57466.2
 420.285 416.82 60882.8
 418.865 482.262 64335.8
 417.455 557.528 67799
 416.054 643.911 71254.5
 414.663 742.9 74699.9
 413.28 856.257 78156.4
 411.907 986.115 81677.6
 410.544 1135.08 85357.6
 409.189 1306.3 89336.7
 407.843 1503.41 93800.6
 406.505 1730.05 98966.9
 405.177 1988.52 105042
 403.857 2276.55 112121
 402.546 2581.02 119996
 401.243 2869.06 127873
 399.949 3082.76 134198
 398.663 3152.76 137032
 397.385 3037.62 135225
 396.115 2757.55 129467
 394.854 2381.43 121961
 393.6 1984.21 115018
 392.355 1620.86 109713
 391.117 1320.36 105266
 389.887 1079.64 100171
 388.665 877.793 94405.1
 387.45 713.188 89516.1
 386.243 600.221 86805.3
 385.044 537.634 85882
 383.852 498.987 84949.5
 382.667 458.312 82719.1
 381.49 410.406 79206.2
 380.319 360.923 74963.5
 379.156 314.625 70472.5
 378 273.464 66023
 376.851 237.765 61760.9
 375.71 207.166 57748.1
 374.574 181.081 54003.5
 373.446 158.895 50525.2
 372.325 140.036 47301.7
 371.21 124.005 44318
 370.102 110.37 41557.7
 369 98.7665 39004.3
 367.905 88.8875 36641.7
 366.817 80.4728 34454.4
 365.735 73.3035 32427.8
 364.659 67.1951 30547.8
 363.59 61.9922 28801.1
 362.527 57.564 27175.3
 361.47 53.8006 25658.3
 360.419 50.6104 24238.6
 359.374 47.9179 22905.1
 358.336 45.6624 21647.1
 357.303 43.7988 20453.9
 356.276 42.2995 19315.3
 355.255 41.1634 18223.4
 354.24 40.4369 17176.4
