 Energy(eV)     Sca_L     Sca_R
 495.937 7150.65 281.354
 493.961 7416.73 293.903
 492.001 7696.15 307.812
 490.056 7989.78 323.241
 488.127 8298.57 340.37
 486.212 8623.55 359.401
 484.313 8965.84 380.557
 482.429 9326.63 404.087
 480.559 9707.24 430.27
 478.703 10109.1 459.417
 476.862 10533.7 491.875
 475.035 10982.7 528.035
 473.222 11458 568.331
 471.423 11961.6 613.251
 469.637 12495.5 663.344
 467.865 13062.1 719.223
 466.106 13664 781.578
 464.36 14303.9 851.186
 462.627 14984.9 928.917
 460.908 15710.3 1015.75
 459.201 16483.6 1112.8
 457.506 17308.8 1221.29
 455.824 18190 1342.64
 454.154 19132 1478.41
 452.497 20139.8 1630.38
 450.851 21218.7 1800.55
 449.218 22374.6 1991.14
 447.596 23613.7 2204.68
 445.986 24943 2443.98
 444.388 26369.4 2712.17
 442.801 27900.6 3012.74
 441.225 29544.5 3349.54
 439.66 31309.4 3726.83
 438.107 33203.6 4149.23
 436.564 35235.6 4621.75
 435.032 37413.5 5149.72
 433.511 39745 5738.76
 432 42237 6394.63
 430.5 44895.2 7123.11
 429.011 47723.7 7929.74
 427.532 50724.2 8819.6
 426.062 53896.3 9796.92
 424.603 57236.4 10864.8
 423.154 60738.2 12024.5
 421.715 64392.7 13275.8
 420.285 68189.2 14615.7
 418.865 72116.2 16039.4
 417.455 76163.9 17539.9
 416.054 80326.4 19109
 414.663 84604.4 20738.3
 413.28 89007.1 22420.9
 411.907 93551.9 24153
 410.544 98260.8 25935.7
 409.189 103149 27775.2
 407.843 108203 29681.6
 406.505 113340 31662.8
 405.177 118358 33712.1
 403.857 122868 35788
 402.546 126271 37790.7
 401.243 127836 39552.6
 399.949 126942 40866
 398.663 123429 41561.7
 397.385 117823 41592.2
 396.115 111248 41041.3
 394.854 105110 40016.1
 393.6 100702 38465.1
 392.355 98532.6 36103.5
 391.117 97608.3 32733.7
 389.887 96256.3 28718.4
 388.665 94114.6 24783.4
 387.45 92235 21440.8
 386.243 91485.6 18829.4
 385.044 91514.9 16867.5
 383.852 91337.4 15403.5
 382.667 90309.3 14231.9
 381.49 88192.6 13124.4
 380.319 85100.2 11961.3
 379.156 81367.4 10759.4
 378 77337.5 9593.48
 376.851 73255.5 8524.15
 375.71 69259.5 7577.89
 374.574 65414.4 6756.87
 373.446 61745.9 6051.88
 372.325 58261.8 5449.96
 371.21 54962 4937.72
 370.102 51843 4502.64
 369 48899.5 4133.52
 367.905 46125.1 3820.5
 366.817 43512.6 3555.1
 365.735 41053.6 3330.02
 364.659 38739.4 3139.09
 363.59 36560.6 2977.13
 362.527 34507.1 2839.81
 361.47 32568.6 2723.55
 360.419 30734.1 2625.47
 359.374 28992.1 2543.23
 358.336 27330.5 2475.03
 357.303 25736.7 2419.47
 356.276 24198.1 2375.41
 355.255 22704.4 2341.57
 354.24 21256.1 2315.53
