 Energy(eV)     Ext_yx     Sca_yx     Ext_xz     Sca_xz 427.532 447.837 222.464 392.763 174.708
 426.796 454.116 225.587 397.874 176.821
 426.062 460.515 228.768 403.08 178.972
 425.332 467.036 232.009 408.385 181.162
 424.603 473.684 235.312 413.791 183.392
 423.877 480.461 238.677 419.299 185.663
 423.154 487.371 242.106 424.914 187.976
 422.433 494.417 245.602 430.636 190.332
 421.715 501.602 249.165 436.47 192.733
 420.999 508.929 252.797 442.418 195.178
 420.285 516.404 256.5 448.483 197.67
 419.574 524.028 260.275 454.667 200.21
 418.865 531.807 264.125 460.975 202.798
 418.159 539.743 268.051 467.409 205.436
 417.455 547.842 272.056 473.972 208.126
 416.753 556.108 276.14 480.669 210.868
 416.054 564.544 280.307 487.503 213.665
 415.357 573.156 284.558 494.477 216.517
 414.663 581.948 288.895 501.595 219.426
 413.97 590.925 293.321 508.861 222.394
 413.28 600.093 297.838 516.279 225.422
 412.593 609.455 302.449 523.854 228.511
 411.907 619.018 307.155 531.589 231.664
 411.224 628.788 311.959 539.49 234.882
 410.544 638.769 316.864 547.561 238.167
 409.865 648.968 321.873 555.806 241.522
 409.189 659.391 326.989 564.232 244.947
 408.514 670.044 332.213 572.842 248.445
 407.843 680.935 337.55 581.643 252.017
 407.173 692.069 343.002 590.64 255.667
 406.505 703.454 348.573 599.838 259.397
 405.84 715.098 354.265 609.245 263.208
 405.177 727.007 360.083 618.865 267.103
 404.516 739.19 366.029 628.706 271.084
 403.857 751.655 372.108 638.774 275.155
 403.2 764.41 378.323 649.076 279.318
 402.546 777.465 384.678 659.619 283.575
 401.893 790.828 391.178 670.412 287.93
 401.243 804.509 397.826 681.46 292.386
 400.595 818.518 404.626 692.774 296.945
 399.949 832.866 411.585 704.361 301.611
 399.305 847.562 418.705 716.229 306.387
 398.663 862.618 425.993 728.389 311.278
 398.023 878.046 433.453 740.849 316.285
 397.385 893.858 441.091 753.62 321.414
 396.749 910.066 448.912 766.711 326.669
 396.115 926.684 456.921 780.134 332.052
 395.484 943.725 465.126 793.899 337.57
 394.854 961.203 473.532 808.018 343.225
 394.226 979.134 482.146 822.504 349.023
 393.6 997.532 490.975 837.369 354.969
 392.977 1016.41 500.025 852.625 361.068
 392.355 1035.8 509.304 868.288 367.325
 391.735 1055.7 518.821 884.371 373.745
 391.117 1076.14 528.582 900.889 380.334
 390.501 1097.13 538.597 917.858 387.099
 389.887 1118.71 548.874 935.295 394.046
 389.275 1140.87 559.422 953.217 401.18
 388.665 1163.66 570.252 971.64 408.51
 388.057 1187.1 581.373 990.585 416.042
 387.45 1211.2 592.796 1010.07 423.784
 386.846 1235.99 604.532 1030.12 431.743
 386.243 1261.5 616.592 1050.75 439.929
 385.643 1287.76 628.989 1071.99 448.349
 385.044 1314.8 641.736 1093.85 457.013
 384.447 1342.64 654.846 1116.37 465.93
 383.852 1371.33 668.333 1139.58 475.11
 383.259 1400.89 682.212 1163.48 484.564
 382.667 1431.36 696.499 1188.13 494.303
 382.077 1462.78 711.21 1213.54 504.338
 381.49 1495.19 726.362 1239.76 514.682
 380.904 1528.63 741.973 1266.8 525.347
 380.319 1563.14 758.063 1294.72 536.346
 379.737 1598.78 774.653 1323.54 547.695
 379.156 1635.59 791.762 1353.3 559.408
 378.578 1673.62 809.414 1384.05 571.5
 378 1712.92 827.632 1415.83 583.989
 377.425 1753.57 846.443 1448.68 596.892
 376.851 1795.61 865.871 1482.66 610.227
 376.28 1839.11 885.945 1517.82 624.015
 375.71 1884.15 906.696 1554.21 638.275
 375.141 1930.79 928.154 1591.88 653.03
 374.574 1979.12 950.354 1630.91 668.303
 374.009 2029.21 973.33 1671.34 684.118
 373.446 2081.15 997.12 1713.26 700.502
 372.885 2135.04 1021.77 1756.74 717.483
 372.325 2190.98 1047.31 1801.85 735.089
 371.767 2249.07 1073.79 1848.67 753.351
 371.21 2309.42 1101.27 1897.3 772.304
 370.655 2372.16 1129.78 1947.82 791.982
 370.102 2437.4 1159.4 2000.33 812.423
 369.55 2505.3 1190.16 2054.94 833.666
 369 2575.99 1222.15 2111.77 855.755
 368.452 2649.63 1255.42 2170.93 878.735
 367.905 2726.39 1290.05 2232.55 902.654
 367.36 2806.45 1326.11 2296.77 927.565
 366.817 2890 1363.69 2363.73 953.523
 366.275 2977.24 1402.87 2433.59 980.587
 365.735 3068.41 1443.76 2506.53 1008.82
 365.196 3163.74 1486.44 2582.72 1038.3
 364.659 3263.49 1531.03 2662.35 1069.08
 364.124 3367.93 1577.66 2745.64 1101.26
 363.59 3477.37 1626.44 2832.82 1134.92
 363.058 3592.13 1677.51 2924.12 1170.14
 362.527 3712.57 1731.04 3019.8 1207.04
 361.997 3839.06 1787.17 3120.16 1245.71
 361.47 3972.02 1846.08 3225.49 1286.26
 360.944 4111.89 1907.96 3336.14 1328.84
 360.419 4259.18 1973.03 3452.45 1373.56
 359.896 4414.4 2041.5 3574.81 1420.58
 359.374 4578.14 2113.62 3703.67 1470.07
 358.854 4751.03 2189.66 3839.46 1522.18
 358.336 4933.78 2269.91 3982.7 1577.11
 357.819 5127.13 2354.7 4133.94 1635.08
 357.303 5331.92 2444.37 4293.78 1696.29
 356.789 5549.08 2539.31 4462.87 1761.01
 356.276 5779.61 2639.94 4641.93 1829.51
 355.765 6024.64 2746.75 4831.76 1902.07
 355.255 6285.38 2860.23 5033.23 1979.04
 354.747 6563.22 2980.97 5247.3 2060.76
 354.24 6859.66 3109.6 5475.02 2147.64
 353.735 7176.39 3246.83 5717.57 2240.12
 353.231 7515.29 3393.43 5976.25 2338.68
 352.729 7878.47 3550.29 6252.5 2443.87
 352.228 8268.26 3718.38 6547.93 2556.3
 351.728 8687.31 3898.81 6864.32 2676.62
 351.23 9138.58 4092.79 7203.68 2805.6
 350.733 9625.42 4301.73 7568.25 2944.08
 350.238 10151.6 4527.18 7960.55 3092.99
 349.744 10721.4 4770.92 8383.42 3253.41
 349.251 11339.8 5034.97 8840.05 3426.53
 348.76 12012.2 5321.61 9334.07 3613.71
 348.27 12745.1 5633.47 9869.59 3816.49
 347.782 13545.8 5973.54 10451.3 4036.62
 347.295 14422.6 6345.28 11084.5 4276.1
 346.809 15385.3 6752.64 11775.3 4537.21
 346.324 16445.2 7200.25 12530.8 4822.59
 345.841 17615.3 7693.43 13359.1 5135.26
 345.36 18911 8238.4 14269.4 5478.72
 344.879 20350.3 8842.44 15272.8 5857.02
 344.4 21954.2 9514.08 16381.7 6274.89
 343.923 23747.7 10263.4 17611.1 6737.82
 343.446 25760.3 11102.2 18978.2 7252.29
 342.971 28026.9 12044.5 20503.4 7825.87
 342.498 30589.5 13107.2 22210.8 8467.51
 342.025 33497.9 14310 24128.9 9187.82
 341.554 36811.7 15676.6 26291.7 9999.33
 341.084 40602.1 17235.2 28739.4 10917
 340.616 44953.9 19019.3 31520.3 11958.6
 340.149 49967.6 21068.4 34692 13145.3
 339.683 55760.7 23428.6 38323.1 14502.3
 339.218 62467.8 26152.4 42495.6 16059.4
 338.754 70237.8 29297.7 47306.3 17851.5
 338.292 79225.3 32924.5 52868.9 19919.5
 337.831 89570.8 37086.9 59314 22309.5
 337.372 101365 41819.5 66788.2 25072
 336.913 114586 47113.2 75447.8 28259.2
 336.456 129007 52880 85446.6 31919.1
 336 144086 58909.5 96911.9 36085.6
 335.546 158870 64832.8 109907 40763
 335.092 172006 70126 124376 45905.3
 334.64 181951 74189 140070 51391.7
 334.189 187389 76504.4 156469 57004.1
 333.739 187672 76808.1 172694 62410.4
 333.291 183021 75168 187445 67160
 332.843 174357 71921.5 199022 70704.7
 332.397 162921 67532.5 205573 72480.6
 331.952 149934 62463.6 205671 72078.8
 331.508 136404 57106.9 198996 69445.1
 331.066 123079 51761.1 186598 64953.7
 330.624 110452 46634.2 170470 59268.9
 330.184 98808.6 41855.6 152762 53096.8
 329.745 88278.1 37492.4 135177 46996.3
 329.307 78880.3 33566.7 118783 41316.5
 328.87 70567.7 30070.5 104089 36224.4
 328.435 63255.5 26977.7 91229.9 31763.5
 328 56842.9 24253 80130.6 27907.6
 327.567 51226 21857.7 70617.1 24597.5
 327.135 46305.2 19753.2 62484.5 21763.5
 326.704 41989.3 17903.3 55530.8 19336.7
 326.274 38197 16274.9 49573.2 17254.7
