 Energy(eV)     Ext_yx     Sca_yx     Ext_xz     Sca_xz 427.532 2015.29 916.62 -338.851 544.569
 426.796 2055.69 978.716 -722.061 616.65
 426.062 2100.83 1041.07 -1215.75 704.362
 425.332 2150.27 1100.65 -1846.47 814.438
 424.603 2206.27 1152.46 -2642.2 956.611
 423.877 2276.51 1188.62 -3625.79 1143.88
 423.154 2378.31 1197.68 -4800.77 1390.71
 422.433 2542.52 1165.46 -6125.32 1705.55
 421.715 2810.27 1080.56 -7476.13 2072.61
 420.999 3208.9 948.051 -8620.5 2423.98
 420.285 3705.49 808.17 -9242.76 2631.08
 419.574 4187.81 738.658 -9070.2 2570.66
 418.865 4534.39 817.795 -8052.98 2245.12
 418.159 4686.96 1075.77 -6417.67 1798.02
 417.455 4592.75 1486.39 -4502.04 1386.44
 416.753 4117.74 1982.98 -2562.91 1090.09
 416.054 3100.32 2460.48 -743.054 923.234
 415.357 1546.12 2789.85 854.216 867.256
 414.663 -239.32 2885.63 2128.69 883.967
 413.97 -1816.59 2769.93 3033.04 929.223
 413.28 -2915.39 2541.94 3610.07 972.339
 412.593 -3516.55 2297.38 3954.42 1002.74
 411.907 -3732.14 2089.86 4157.87 1022.54
 411.224 -3688.63 1937.42 4286.63 1037.92
 410.544 -3480.9 1839.92 4382.9 1054.82
 409.865 -3168.66 1790.81 4472.98 1077.89
 409.189 -2785.24 1782.58 4574.12 1110.65
 408.514 -2346.54 1808.68 4698.81 1155.86
 407.843 -1857.2 1863.9 4857.47 1215.87
 407.173 -1314.3 1944.01 5059.91 1292.86
 406.505 -709.455 2045.33 5316.14 1388.83
 405.84 -30.1461 2163.92 5636.75 1505.49
 405.177 738.984 2294.6 6032.3 1643.71
 404.516 1613.65 2429.58 6511.51 1802.44
 403.857 2604.45 2556.56 7076.85 1976.69
 403.2 3705.65 2656.71 7716.07 2154.31
 402.546 4875.42 2704.01 8388.98 2311.81
 401.893 6009.67 2669.44 9013.46 2411.98
 401.243 6925.76 2535.56 9465.22 2409.02
 400.595 7389.18 2322.89 9613.18 2267.48
 399.949 7197.51 2121.95 9387.78 1990.33
 399.305 6271.89 2146.95 8821 1643.83
 398.663 4855.81 3024.28 7970.25 1454.44
 398.023 6696.65 6872.88 6747.02 2606.55
 397.385 15258.7 6833.99 6511.4 3719.6
 396.749 14311.6 3995.61 6674.12 2429.97
 396.115 14399.9 3532.68 6669.61 1810.05
 395.484 16463.4 3734.84 6714.13 1557.33
 394.854 18953.8 3728.21 6680.45 1468.27
 394.226 19852.9 3244.37 6498.42 1464.82
 393.6 19422.7 2698.23 6373.89 1529.85
 392.977 18873.4 2345.48 6441.38 1653.8
 392.355 18569.5 2144.98 6679.66 1821.48
 391.735 18379.6 2034.6 7028.18 2011.94
 391.117 18136.6 2029.65 7417.03 2192.76
 390.501 17830.5 2202.8 7771.29 2331.23
 389.887 17612.1 2593.87 8057.52 2430.5
 389.275 17629.4 3135.54 8317.32 2535.76
 388.665 17866.2 3681.61 8610.94 2685.19
 388.057 18127.8 4080.77 8954.71 2881.09
 387.45 18144.3 4232.55 9328.58 3108.01
 386.846 17716.7 4119.77 9714.45 3357.87
 386.243 16812.8 3806.39 10119.2 3639.13
 385.643 15557 3400.05 10573.7 3972.9
 385.044 14147.7 3006.78 11119.8 4385.44
 384.447 12775.1 2704.48 11799.9 4904.15
 383.852 11581.9 2539.1 12654.7 5558.54
 383.259 10659 2533.07 13728.3 6385.17
 382.667 10057.9 2696.13 15078.1 7435.94
 382.077 9802.29 3034.94 16791.7 8790.38
 381.49 9895.23 3563.25 19011.5 10572.1
 380.904 10321.8 4319.54 21959.7 12959
 380.319 11064.3 5400.92 25909.1 16139.4
 379.737 12166.9 6998.78 30946.3 20097.9
 379.156 13850 9335.57 36462.6 24247.3
 378.578 16467.9 12429 41147.2 27579.1
 378 20187.6 16024.7 44165.1 29653.4
 377.425 24877.8 19868.8 45722.8 30855.3
 376.851 30275.1 23752.6 46301.1 31669.1
 376.28 35871.4 27145.4 46105.5 32289.6
 375.71 40403.6 28756.1 45064.9 32666.7
 375.141 41810.1 26960.3 43010.7 32636.2
 374.574 39116.4 21869.5 39919.8 32079.2
 374.009 34016.6 15948.2 35999.2 30995.8
 373.446 28734.8 11267.4 31498.1 29364.2
 372.885 24019 8158.4 26618.9 27022.5
 372.325 19566.6 6119.13 21630.8 23752.2
 371.767 14999.6 4644.45 16975 19539.8
 371.21 10492.3 3491.74 13173.3 14820.9
 370.655 6776.91 2611.31 10545.1 10337.8
 370.102 4499.46 1985.43 9026.5 6684.8
 369.55 3690.6 1587.22 8267.91 4081.91
 369 3881.25 1387.25 7870.77 2452.86
 368.452 4502.98 1328.36 7577.11 1562
 367.905 5161.38 1333.04 7313.27 1138.53
 367.36 5686.97 1341.13 7113 971.001
 366.817 6050.18 1324.84 7027.04 935.749
 366.275 6263.16 1276.95 7076.06 973.457
 365.735 6325.44 1195.46 7232.89 1053.09
 365.196 6216.16 1077.28 7417.53 1144.97
 364.659 5924.01 922.4 7518.92 1212.2
 364.124 5488.46 741.502 7455.31 1223.74
 363.59 5005.44 555.826 7225.87 1173.25
 363.058 4590.9 389.022 6892.09 1078.36
 362.527 4347.68 262.095 6517.99 962.608
 361.997 4352.86 193.649 6140.92 842.523
 361.47 4646.12 196.717 5785.43 728.441
 360.944 5217.61 271.165 5480.64 629.76
 360.419 6004.45 401.406 5254.88 555.893
 359.896 6902.12 563.126 5122.02 514.019
 359.374 7793.33 731.256 5081.19 508.976
 358.854 8581.68 882.841 5134.99 546.974
 358.336 9214.1 998.136 5308.81 638.54
 357.819 9670.08 1062.83 5647.57 795.662
 357.303 9921.55 1070.14 6191.98 1025.75
 356.789 9923.88 1024.17 6958.02 1328.77
 356.276 9665.81 941.116 7933.81 1699.41
 355.765 9208.61 842.301 9092.75 2131.98
 355.255 8662.46 745.361 10412.8 2625.01
 354.747 8152.12 664.402 11892.1 3184.42
 354.24 7819.29 618.352 13546.9 3820.06
 353.735 7780.98 628.977 15345.2 4515.16
 353.231 7998.87 697.563 17095.8 5180.78
 352.729 8280.36 798.665 18500 5686.92
 352.228 8489.2 911.477 19394.1 5970.46
 351.728 8650.91 1037.01 19852.9 6072.34
 351.23 8862.16 1185.28 20062.1 6078.07
 350.733 9198.36 1365.01 20192.4 6067.5
 350.238 9699.67 1583.29 20391.9 6116.99
 349.744 10381.3 1843.61 20783 6295.66
 349.251 11228.9 2139.75 21369 6615.41
 348.76 12185.2 2449.59 21915.4 6963.01
 348.27 13147.8 2737.14 21946.7 7079.74
 347.782 14010 2977.48 21093.2 6720.14
 347.295 14747.1 3202.86 19685.2 5989.64
 346.809 15451.1 3507.04 18627.7 5352.61
 346.324 16197 3938.86 18566.8 5214
 345.841 16855.7 4390.99 19436.9 5647.47
 345.36 17325.6 4755.22 20590.9 6383.89
 344.879 17727.8 5053.66 21430.4 7093.32
 344.4 18182.4 5327.5 21679.5 7576.69
 343.923 18759.4 5603.92 21286.4 7749.44
 343.446 19535.5 5918.13 20339 7608.19
 342.971 20583 6305.88 19008.5 7206.44
 342.498 21908.6 6777.86 17497.8 6628.84
 342.025 23405.4 7302.03 16000.5 5968.12
 341.554 24870.9 7807.8 14674.3 5309.79
 341.084 26110.6 8214.55 13620.4 4722.03
 340.616 27041.6 8464.25 12864.7 4245.69
 340.149 27676.2 8527.87 12356.1 3885.96
 339.683 28019.1 8394.59 11998 3615.83
 339.218 28015.7 8078.73 11707.5 3399.13
 338.754 27587.6 7634 11445.2 3212.42
 338.292 26702.6 7139.84 11207.7 3047.43
 337.831 25398.5 6657.67 11015.4 2906.35
 337.372 23742.6 6189.58 10887 2793.53
 336.913 21812.1 5685.4 10810.9 2703.87
 336.456 19729.3 5101.26 10742.9 2618.27
 336 17679.2 4452.89 10630.7 2510.36
 335.546 15849.7 3810.01 10471.3 2369.5
 335.092 14338.3 3242.73 10349.7 2227.69
 334.64 13122.9 2777.45 10388.8 2149.71
 334.189 12116.8 2394.26 10659 2189.45
 333.739 11254.5 2056.33 11180.4 2378.41
 333.291 10546.6 1744.14 12012.7 2768.16
 332.843 10077.5 1472.47 13255.8 3446.82
 332.397 9948.99 1283.52 14781.9 4410.4
 331.952 10192 1215.97 15916.9 5337.95
 331.508 10741.8 1276.06 15907.4 5735.29
 331.066 11574.2 1464.38 14867 5499.33
 330.624 12798.5 1819.82 13493.9 4941.86
 330.184 14454.3 2376.49 12237.5 4344.46
 329.745 16189.7 3040.5 11189 3804.18
 329.307 17435.2 3589.49 10300.8 3312.71
 328.87 18143.9 3937.57 9542.95 2846.35
 328.435 18798.3 4230.7 9008.23 2436.34
 328 19705.6 4596.59 8822.17 2151.48
 327.567 20802.7 5016.25 8992.04 2025.88
 327.135 21924.2 5425.28 9432.07 2047.66
 326.704 22968 5799.74 10052.3 2187.59
 326.274 23885 6145.97 10798.9 2421.02
