 Energy(eV)     Ext_yx     Sca_yx     Ext_xz     Sca_xz 427.532 627.124 391.375 838.333 611.524
 426.796 635.786 396.671 848.871 618.951
 426.062 644.608 402.061 859.587 626.498
 425.332 653.595 407.547 870.486 634.168
 424.603 662.751 413.132 881.573 641.964
 423.877 672.08 418.818 892.851 649.888
 423.154 681.586 424.608 904.326 657.944
 422.433 691.275 430.504 916.002 666.135
 421.715 701.151 436.51 927.883 674.464
 420.999 711.219 442.627 939.976 682.934
 420.285 721.484 448.859 952.285 691.549
 419.574 731.951 455.209 964.815 700.311
 418.865 742.626 461.68 977.572 709.226
 418.159 753.513 468.275 990.562 718.296
 417.455 764.62 474.997 1003.79 727.525
 416.753 775.952 481.85 1017.26 736.917
 416.054 787.515 488.838 1030.99 746.477
 415.357 799.316 495.963 1044.97 756.207
 414.663 811.361 503.231 1059.21 766.114
 413.97 823.657 510.644 1073.73 776.201
 413.28 836.211 518.207 1088.52 786.473
 412.593 849.031 525.925 1103.6 796.935
 411.907 862.124 533.8 1118.97 807.591
 411.224 875.499 541.839 1134.64 818.447
 410.544 889.162 550.045 1150.62 829.508
 409.865 903.123 558.424 1166.92 840.779
 409.189 917.392 566.98 1183.54 852.267
 408.514 931.975 575.719 1200.5 863.976
 407.843 946.884 584.646 1217.8 875.914
 407.173 962.129 593.767 1235.46 888.085
 406.505 977.718 603.088 1253.48 900.497
 405.84 993.664 612.614 1271.87 913.157
 405.177 1009.98 622.352 1290.65 926.071
 404.516 1026.67 632.308 1309.82 939.246
 403.857 1043.75 642.49 1329.41 952.69
 403.2 1061.23 652.904 1349.41 966.411
 402.546 1079.13 663.558 1369.84 980.416
 401.893 1097.46 674.459 1390.71 994.715
 401.243 1116.23 685.615 1412.05 1009.31
 400.595 1135.46 697.034 1433.85 1024.22
 399.949 1155.17 708.726 1456.14 1039.45
 399.305 1175.36 720.698 1478.93 1055.01
 398.663 1196.05 732.961 1502.24 1070.91
 398.023 1217.27 745.524 1526.08 1087.16
 397.385 1239.03 758.397 1550.46 1103.77
 396.749 1261.34 771.591 1575.42 1120.75
 396.115 1284.24 785.116 1600.95 1138.11
 395.484 1307.73 798.985 1627.09 1155.87
 394.854 1331.84 813.209 1653.86 1174.03
 394.226 1356.59 827.8 1681.26 1192.62
 393.6 1382.01 842.772 1709.33 1211.64
 392.977 1408.11 858.139 1738.09 1231.11
 392.355 1434.93 873.914 1767.55 1251.04
 391.735 1462.49 890.113 1797.74 1271.45
 391.117 1490.81 906.752 1828.7 1292.36
 390.501 1519.94 923.846 1860.44 1313.77
 389.887 1549.89 941.413 1892.99 1335.72
 389.275 1580.7 959.47 1926.37 1358.21
 388.665 1612.4 978.037 1960.63 1381.27
 388.057 1645.02 997.134 1995.79 1404.92
 387.45 1678.62 1016.78 2031.88 1429.17
 386.846 1713.21 1037 2068.93 1454.05
 386.243 1748.85 1057.81 2106.99 1479.58
 385.643 1785.57 1079.24 2146.09 1505.78
 385.044 1823.42 1101.32 2186.26 1532.69
 384.447 1862.44 1124.06 2227.55 1560.32
 383.852 1902.7 1147.5 2270 1588.7
 383.259 1944.23 1171.67 2313.66 1617.86
 382.667 1987.09 1196.6 2358.56 1647.83
 382.077 2031.35 1222.31 2404.77 1678.65
 381.49 2077.05 1248.86 2452.33 1710.33
 380.904 2124.27 1276.26 2501.29 1742.93
 380.319 2173.08 1304.56 2551.72 1776.47
 379.737 2223.54 1333.8 2603.66 1810.99
 379.156 2275.73 1364.02 2657.2 1846.54
 378.578 2329.73 1395.27 2712.38 1883.15
 378 2385.63 1427.59 2769.28 1920.86
 377.425 2443.51 1461.04 2827.97 1959.73
 376.851 2503.48 1495.66 2888.54 1999.8
 376.28 2565.63 1531.52 2951.05 2041.13
 375.71 2630.06 1568.67 3015.6 2083.77
 375.141 2696.9 1607.18 3082.27 2127.77
 374.574 2766.26 1647.12 3151.16 2173.19
 374.009 2838.28 1688.55 3222.38 2220.1
 373.446 2913.08 1731.56 3296.02 2268.57
 372.885 2990.82 1776.22 3372.2 2318.67
 372.325 3071.65 1822.62 3451.04 2370.46
 371.767 3155.73 1870.86 3532.67 2424.04
 371.21 3243.25 1921.03 3617.21 2479.48
 370.655 3334.38 1973.24 3704.81 2536.88
 370.102 3429.35 2027.59 3795.62 2596.33
 369.55 3528.35 2084.22 3889.8 2657.92
 369 3631.62 2143.25 3987.52 2721.77
 368.452 3739.41 2204.81 4088.95 2787.98
 367.905 3851.99 2269.06 4194.3 2856.69
 367.36 3969.64 2336.16 4303.75 2928.01
 366.817 4092.67 2406.27 4417.54 3002.08
 366.275 4221.42 2479.58 4535.89 3079.05
 365.735 4356.24 2556.28 4659.04 3159.06
 365.196 4497.51 2636.6 4787.27 3242.3
 364.659 4645.66 2720.77 4920.86 3328.93
 364.124 4801.13 2809.02 5060.1 3419.13
 363.59 4964.41 2901.63 5205.32 3513.12
 363.058 5136.04 2998.9 5356.86 3611.11
 362.527 5316.57 3101.14 5515.1 3713.33
 361.997 5506.65 3208.69 5680.44 3820.02
 361.47 5706.94 3321.92 5853.3 3931.46
 360.944 5918.19 3441.26 6034.14 4047.92
 360.419 6141.2 3567.13 6223.47 4169.72
 359.896 6376.85 3700.02 6421.81 4297.19
 359.374 6626.11 3840.47 6629.74 4430.68
 358.854 6890.04 3989.05 6847.88 4570.58
 358.336 7169.79 4146.4 7076.92 4717.31
 357.819 7466.64 4313.22 7317.56 4871.31
 357.303 7782 4490.28 7570.61 5033.06
 356.789 8117.41 4678.41 7836.91 5203.11
 356.276 8474.58 4878.57 8117.41 5382.01
 355.765 8855.41 5091.78 8413.1 5570.39
 355.255 9262 5319.18 8725.09 5768.92
 354.747 9696.67 5562.04 9054.58 5978.33
 354.24 10162 5821.78 9402.86 6199.43
 353.735 10661 6099.97 9771.37 6433.07
 353.231 11196.7 6398.34 10161.7 6680.22
 352.729 11772.8 6718.87 10575.5 6941.91
 352.228 12393.4 7063.74 11014.6 7219.29
 351.728 13063.1 7435.41 11481.2 7513.58
 351.23 13786.8 7836.62 11977.5 7826.18
 350.733 14570.5 8270.5 12506 8158.57
 350.238 15420.6 8740.52 13069.4 8512.41
 349.744 16344.5 9250.63 13670.8 8889.53
 349.251 17350.5 9805.27 14313.5 9291.92
 348.76 18448.1 10409.5 15001.2 9721.8
 348.27 19648.1 11069 15738.1 10181.6
 347.782 20962.5 11790.1 16528.7 10674.1
 347.295 22405.2 12580.2 17378.1 11202.2
 346.809 23991.8 13447.3 18292 11769.2
 346.324 25739.9 14400.7 19276.6 12378.9
 345.841 27669.5 15450.6 20338.9 13035.3
 345.36 29802.8 16608.4 21486.8 13743
 344.879 32164.5 17886.5 22729 14506.8
 344.4 34781.6 19298.2 24075.4 15332.5
 343.923 37683.1 20857.7 25536.7 16226.2
 343.446 40899.4 22579.1 27125.4 17194.8
 342.971 44460.7 24475.8 28855 18245.7
 342.498 48395.4 26559.1 30740.8 19387.4
 342.025 52726.6 28836.2 32799.9 20629
 341.554 57467.8 31307.2 35051.5 21980.6
 341.084 62617.6 33961.7 37516.5 23453.1
 340.616 68152.4 36774.7 40218.7 25058.6
 340.149 74021.5 39702.4 43183.8 26809.9
 339.683 80142.6 42680.2 46440.3 28720.6
 339.218 86405.2 45623.5 50018.9 30805.1
 338.754 92682.3 48434.3 53952 33078.2
 338.292 98853.8 51014.5 58272.6 35554.4
 337.831 104835 53283.5 63012 38247.1
 337.372 110599 55193.7 68195.1 41166.5
 336.913 116169 56734.8 73833 44316.1
 336.456 121565 57919.2 79911.4 47686.5
 336 126690 58745.6 86374.7 51246.6
 335.546 131190 59157.4 93109.5 54932.9
 335.092 134414 59029.7 99932.2 58639.1
 334.64 135607 58223 106586 62212.4
 334.189 134374 56700.8 112750 65461.4
 333.739 131022 54615.8 118062 68178.1
 333.291 126381 52271.6 122163 70177.1
 332.843 121242 49979 124768 71346.9
 332.397 115980 47925.8 125762 71688.7
 331.952 110593 46136.3 125234 71301.7
 331.508 104901 44497.9 123399 70309.5
 331.066 98726.2 42819.9 120456 68793.9
 330.624 92050.1 40933 116531 66794.5
 330.184 85071.3 38779.1 111740 64349.2
 329.745 78097.1 36415.2 106262 61521.5
 329.307 71401.3 33951.8 100328 58400.9
 328.87 65157.4 31495.8 94175.5 55089.7
 328.435 59444.1 29125.2 88000.7 51688.4
 328 54275.1 26887 81949.9 48286.3
 327.567 49627.9 24804.9 76124.9 44955.6
 327.135 45462.5 22886.7 70592.9 41750.1
 326.704 41732.9 21130.4 65393.8 38706.6
 326.274 38392.9 19528.4 60547.1 35847.2
