 Energy(eV)     Ext_yx     Sca_yx     Ext_xz     Sca_xz 427.532 554.835 322.852 676.201 454.386
 426.796 562.541 327.263 684.423 459.591
 426.062 570.396 331.757 692.784 464.879
 425.332 578.403 336.337 701.288 470.252
 424.603 586.565 341.005 709.939 475.712
 423.877 594.888 345.762 718.739 481.26
 423.154 603.375 350.612 727.693 486.898
 422.433 612.031 355.557 736.803 492.63
 421.715 620.86 360.598 746.075 498.456
 420.999 629.867 365.74 755.512 504.38
 420.285 639.057 370.983 765.118 510.403
 419.574 648.433 376.332 774.897 516.529
 418.865 658.003 381.789 784.854 522.759
 418.159 667.77 387.357 794.993 529.096
 417.455 677.74 393.039 805.318 535.544
 416.753 687.919 398.838 815.835 542.103
 416.054 698.312 404.758 826.549 548.778
 415.357 708.926 410.801 837.464 555.571
 414.663 719.767 416.971 848.585 562.486
 413.97 730.841 423.272 859.919 569.525
 413.28 742.155 429.708 871.471 576.691
 412.593 753.716 436.282 883.247 583.988
 411.907 765.53 442.998 895.252 591.42
 411.224 777.606 449.861 907.493 598.99
 410.544 789.951 456.874 919.976 606.701
 409.865 802.572 464.043 932.708 614.557
 409.189 815.479 471.371 945.696 622.563
 408.514 828.679 478.864 958.947 630.722
 407.843 842.182 486.526 972.468 639.038
 407.173 855.997 494.362 986.267 647.516
 406.505 870.132 502.379 1000.35 656.161
 405.84 884.599 510.58 1014.73 664.976
 405.177 899.407 518.973 1029.41 673.967
 404.516 914.567 527.563 1044.4 683.139
 403.857 930.09 536.355 1059.72 692.497
 403.2 945.987 545.358 1075.36 702.046
 402.546 962.271 554.576 1091.34 711.792
 401.893 978.954 564.017 1107.67 721.74
 401.243 996.049 573.689 1124.37 731.897
 400.595 1013.57 583.598 1141.43 742.269
 399.949 1031.53 593.753 1158.88 752.862
 399.305 1049.94 604.161 1176.72 763.682
 398.663 1068.83 614.831 1194.96 774.737
 398.023 1088.19 625.772 1213.63 786.035
 397.385 1108.06 636.993 1232.73 797.581
 396.749 1128.45 648.503 1252.28 809.385
 396.115 1149.38 660.313 1272.28 821.454
 395.484 1170.86 672.432 1292.77 833.797
 394.854 1192.91 684.872 1313.74 846.422
 394.226 1215.56 697.644 1335.22 859.339
 393.6 1238.83 710.759 1357.23 872.557
 392.977 1262.73 724.23 1379.78 886.086
 392.355 1287.3 738.07 1402.88 899.936
 391.735 1312.55 752.292 1426.57 914.118
 391.117 1338.52 766.91 1450.86 928.642
 390.501 1365.22 781.939 1475.77 943.522
 389.887 1392.69 797.395 1501.32 958.769
 389.275 1420.96 813.292 1527.53 974.395
 388.665 1450.05 829.649 1554.43 990.413
 388.057 1480 846.483 1582.05 1006.84
 387.45 1510.84 863.812 1610.4 1023.68
 386.846 1542.61 881.655 1639.52 1040.97
 386.243 1575.34 900.034 1669.44 1058.7
 385.643 1609.07 918.97 1700.17 1076.9
 385.044 1643.85 938.484 1731.77 1095.59
 384.447 1679.71 958.601 1764.25 1114.79
 383.852 1716.7 979.345 1797.65 1134.5
 383.259 1754.87 1000.74 1832 1154.76
 382.667 1794.28 1022.82 1867.36 1175.58
 382.077 1834.96 1045.61 1903.74 1196.99
 381.49 1876.98 1069.14 1941.2 1219
 380.904 1920.39 1093.44 1979.78 1241.65
 380.319 1965.26 1118.55 2019.52 1264.95
 379.737 2011.65 1144.49 2060.48 1288.94
 379.156 2059.63 1171.32 2102.7 1313.64
 378.578 2109.27 1199.07 2146.23 1339.08
 378 2160.65 1227.78 2191.13 1365.29
 377.425 2213.86 1257.49 2237.47 1392.31
 376.851 2268.97 1288.26 2285.29 1420.17
 376.28 2326.07 1320.13 2334.67 1448.9
 375.71 2385.27 1353.15 2385.68 1478.54
 375.141 2446.66 1387.39 2438.39 1509.14
 374.574 2510.36 1422.9 2492.87 1540.73
 374.009 2576.48 1459.74 2549.21 1573.37
 373.446 2645.14 1497.98 2607.5 1607.09
 372.885 2716.47 1537.7 2667.82 1641.95
 372.325 2790.62 1578.96 2730.27 1677.99
 371.767 2867.72 1621.85 2794.95 1715.29
 371.21 2947.93 1666.46 2861.98 1753.89
 370.655 3031.43 1712.87 2931.47 1793.86
 370.102 3118.4 1761.18 3003.53 1835.27
 369.55 3209.01 1811.51 3078.31 1878.19
 369 3303.49 1863.95 3155.93 1922.69
 368.452 3402.05 1918.64 3236.55 1968.85
 367.905 3504.91 1975.69 3320.32 2016.76
 367.36 3612.35 2035.25 3407.42 2066.51
 366.817 3724.62 2097.46 3498.01 2118.2
 366.275 3842.01 2162.47 3592.29 2171.93
 365.735 3964.84 2230.47 3690.46 2227.81
 365.196 4093.45 2301.63 3792.75 2285.97
 364.659 4228.19 2376.16 3899.37 2346.52
 364.124 4369.46 2454.25 4010.6 2409.6
 363.59 4517.68 2536.14 4126.68 2475.36
 363.058 4673.3 2622.08 4247.92 2543.95
 362.527 4836.82 2712.33 4374.61 2615.55
 361.997 5008.77 2807.19 4507.09 2690.32
 361.47 5189.73 2906.96 4645.73 2768.47
 360.944 5380.33 3012 4790.9 2850.2
 360.419 5581.25 3122.66 4943.02 2935.73
 359.896 5793.24 3239.35 5102.55 3025.32
 359.374 6017.12 3362.5 5269.97 3119.21
 358.854 6253.75 3492.61 5445.81 3217.7
 358.336 6504.13 3630.18 5630.64 3321.09
 357.819 6769.29 3775.79 5825.08 3429.71
 357.303 7050.41 3930.05 6029.8 3543.93
 356.789 7348.77 4093.67 6245.55 3664.13
 356.276 7665.75 4267.38 6473.11 3790.75
 355.765 8002.91 4452.02 6713.38 3924.24
 355.255 8361.94 4648.49 6967.29 4065.12
 354.747 8744.73 4857.8 7235.89 4213.95
 354.24 9153.34 5081.05 7520.34 4371.32
 353.735 9590.08 5319.47 7821.88 4537.92
 353.231 10057.5 5574.41 8141.91 4714.46
 352.729 10558.4 5847.37 8481.94 4901.76
 352.228 11096 6140.03 8843.65 5100.7
 351.728 11673.8 6454.24 9228.91 5312.26
 351.23 12295.8 6792.06 9639.77 5537.52
 350.733 12966.2 7155.81 10078.5 5777.69
 350.238 13690.1 7548.04 10547.7 6034.09
 349.744 14472.9 7971.65 11050.1 6308.19
 349.251 15320.9 8429.83 11588.9 6601.65
 348.76 16241.1 8926.19 12167.7 6916.31
 348.27 17241.2 9464.75 12790.4 7254.2
 347.782 18330.2 10050 13461.3 7617.64
 347.295 19518.1 10687 14185.6 8009.21
 346.809 20816 11381.5 14968.9 8431.81
 346.324 22236.9 12139.6 15817.5 8888.72
 345.841 23794.9 12968.5 16738.6 9383.64
 345.36 25506.3 13875.9 17740.5 9920.76
 344.879 27389.3 14870.4 18832.6 10504.8
 344.4 29464.3 15961.7 20025.4 11141.3
 343.923 31754.1 17159.9 21331.1 11836.2
 343.446 34284.2 18476.2 22763.8 12596.7
 342.971 37082.7 19922.3 24339.6 13430.8
 342.498 40180.2 21510.4 26076.7 14347.7
 342.025 43610.3 23252.8 27996.6 15357.8
 341.554 47408.7 25161 30123.8 16473.3
 341.084 51612.9 27245.7 32486.4 17708
 340.616 56262.1 29515 35117.1 19077.6
 340.149 61395.5 31973.7 38053.3 20600.2
 339.683 67052.2 34622 41337.6 22296
 339.218 73269.6 37453.9 45018.6 24188
 338.754 80082.3 40456.5 49150.5 26301.4
 338.292 87519.4 43608.7 53792.6 28663.3
 337.831 95598.3 46880.3 59008.2 31301.8
 337.372 104310 50228.8 64860.5 34244.1
 336.913 113585 53592.9 71406.9 37513.1
 336.456 123238 56878 78688.9 41121.7
 336 132879 59935.3 86716.1 45065
 335.546 141841 62543.9 95444 49309.3
 335.092 149207 64424.6 104743 53777.7
 334.64 154034 65313.2 114364 58336.8
 334.189 155727 65081.3 123899 62787.5
 333.739 154283 63815.6 132777 66873.8
 333.291 150182 61778.7 140322 70320.9
 332.843 144067 59282 145899 72899.9
 332.397 136531 56563.6 149102 74483
 331.952 128033 53724.9 149834 75040.1
 331.508 118924 50755.7 148227 74590.7
 331.066 109527 47629.1 144529 73172.1
 330.624 100181 44374.1 139056 70851.2
 330.184 91187.7 41073.4 132184 67745.3
 329.745 82761.2 37825.1 124319 64024
 329.307 75018.2 34711.1 115866 59888.1
 328.87 67997.5 31786.6 107190 55540.4
 328.435 61686.7 29081.1 98595 51160.3
 328 56044.8 26605 90310.8 46888.7
 327.567 51016.2 24355.4 82493.3 42825
 327.135 46540.7 22321.4 75233.7 39030.4
 326.704 42558.4 20487.7 68572.5 35535.4
 326.274 39012.7 18837 62513.2 32348.3
