 Energy(eV)     Ext_yx     Sca_yx     Ext_xz     Sca_xz 427.532 468.702 242.181 426.356 208.556
 426.796 475.204 245.513 431.73 210.947
 426.062 481.827 248.904 437.202 213.381
 425.332 488.575 252.357 442.776 215.857
 424.603 495.451 255.872 448.453 218.377
 423.877 502.459 259.452 454.237 220.941
 423.154 509.601 263.099 460.13 223.552
 422.433 516.881 266.813 466.135 226.21
 421.715 524.303 270.597 472.254 228.916
 420.999 531.871 274.452 478.492 231.671
 420.285 539.589 278.381 484.849 234.477
 419.574 547.46 282.385 491.331 237.335
 418.865 555.489 286.467 497.939 240.247
 418.159 563.679 290.628 504.678 243.213
 417.455 572.036 294.871 511.551 246.235
 416.753 580.564 299.198 518.561 249.315
 416.054 589.267 303.611 525.712 252.454
 415.357 598.151 308.112 533.007 255.654
 414.663 607.22 312.705 540.451 258.916
 413.97 616.48 317.391 548.048 262.241
 413.28 625.936 322.174 555.802 265.633
 412.593 635.594 327.056 563.717 269.091
 411.907 645.459 332.039 571.798 272.619
 411.224 655.538 337.127 580.049 276.219
 410.544 665.836 342.324 588.475 279.891
 409.865 676.361 347.631 597.081 283.638
 409.189 687.119 353.052 605.872 287.463
 408.514 698.116 358.591 614.854 291.367
 407.843 709.36 364.251 624.032 295.353
 407.173 720.858 370.035 633.412 299.422
 406.505 732.618 375.949 642.999 303.579
 405.84 744.648 381.994 652.801 307.824
 405.177 756.956 388.176 662.822 312.16
 404.516 769.552 394.498 673.07 316.591
 403.857 782.442 400.965 683.552 321.119
 403.2 795.638 407.582 694.275 325.747
 402.546 809.149 414.353 705.246 330.478
 401.893 822.984 421.282 716.473 335.315
 401.243 837.154 428.376 727.964 340.261
 400.595 851.67 435.638 739.726 345.32
 399.949 866.543 443.076 751.77 350.495
 399.305 881.785 450.693 764.103 355.79
 398.663 897.408 458.497 776.735 361.209
 398.023 913.424 466.494 789.676 366.755
 397.385 929.847 474.688 802.936 372.433
 396.749 946.691 483.089 816.524 378.247
 396.115 963.97 491.701 830.453 384.201
 395.484 981.698 500.533 844.734 390.3
 394.854 999.892 509.592 859.378 396.548
 394.226 1018.57 518.885 874.398 402.952
 393.6 1037.74 528.421 889.806 409.515
 392.977 1057.43 538.209 905.617 416.244
 392.355 1077.66 548.257 921.844 423.144
 391.735 1098.43 558.574 938.502 430.221
 391.117 1119.79 569.171 955.606 437.481
 390.501 1141.73 580.057 973.172 444.931
 389.887 1164.3 591.242 991.217 452.578
 389.275 1187.5 602.738 1009.76 460.427
 388.665 1211.37 614.557 1028.81 468.488
 388.057 1235.93 626.71 1048.4 476.767
 387.45 1261.2 639.21 1068.55 485.273
 386.846 1287.22 652.07 1089.26 494.013
 386.243 1314.01 665.304 1110.58 502.998
 385.643 1341.61 678.926 1132.51 512.235
 385.044 1370.04 692.952 1155.09 521.735
 384.447 1399.33 707.398 1178.34 531.509
 383.852 1429.53 722.28 1202.28 541.566
 383.259 1460.68 737.617 1226.95 551.917
 382.667 1492.8 753.426 1252.36 562.576
 382.077 1525.94 769.726 1278.57 573.553
 381.49 1560.15 786.539 1305.59 584.862
 380.904 1595.47 803.886 1333.45 596.516
 380.319 1631.94 821.789 1362.21 608.531
 379.737 1669.62 840.273 1391.89 620.921
 379.156 1708.57 859.361 1422.53 633.701
 378.578 1748.83 879.082 1454.17 646.889
 378 1790.46 899.462 1486.87 660.503
 377.425 1833.54 920.532 1520.66 674.56
 376.851 1878.12 942.321 1555.6 689.081
 376.28 1924.27 964.864 1591.73 704.087
 375.71 1972.08 988.195 1629.12 719.599
 375.141 2021.61 1012.35 1667.82 735.641
 374.574 2072.96 1037.37 1707.89 752.237
 374.009 2126.2 1063.3 1749.4 769.414
 373.446 2181.44 1090.17 1792.42 787.198
 372.885 2238.77 1118.04 1837.01 805.62
 372.325 2298.3 1146.96 1883.27 824.71
 371.767 2360.14 1176.97 1931.27 844.501
 371.21 2424.42 1208.14 1981.09 865.028
 370.655 2491.25 1240.52 2032.84 886.328
 370.102 2560.78 1274.17 2086.62 908.442
 369.55 2633.15 1309.18 2142.52 931.411
 369 2708.51 1345.59 2200.66 955.28
 368.452 2787.04 1383.5 2261.17 980.096
 367.905 2868.9 1422.99 2324.17 1005.91
 367.36 2954.3 1464.14 2389.8 1032.78
 366.817 3043.43 1507.04 2458.21 1060.77
 366.275 3136.51 1551.81 2529.56 1089.92
 365.735 3233.77 1598.54 2604.01 1120.32
 365.196 3335.48 1647.35 2681.75 1152.04
 364.659 3441.89 1698.38 2762.97 1185.14
 364.124 3553.31 1751.74 2847.89 1219.72
 363.59 3670.04 1807.6 2936.72 1255.86
 363.058 3792.43 1866.1 3029.71 1293.66
 362.527 3920.85 1927.41 3127.13 1333.23
 361.997 4055.69 1991.71 3229.26 1374.67
 361.47 4197.39 2059.21 3336.4 1418.1
 360.944 4346.4 2130.12 3448.89 1463.66
 360.419 4503.25 2204.66 3567.08 1511.49
 359.896 4668.48 2283.1 3691.36 1561.74
 359.374 4842.7 2365.69 3822.16 1614.57
 358.854 5026.55 2452.75 3959.93 1670.18
 358.336 5220.76 2544.6 4105.18 1728.75
 357.819 5426.11 2641.58 4258.46 1790.49
 357.303 5643.45 2744.1 4420.35 1855.66
 356.789 5873.74 2852.58 4591.52 1924.49
 356.276 6117.99 2967.48 4772.68 1997.27
 355.765 6377.36 3089.31 4964.62 2074.31
 355.255 6653.1 3218.64 5168.19 2155.96
 354.747 6946.59 3356.1 5384.35 2242.57
 354.24 7259.37 3502.37 5614.15 2334.56
 353.735 7593.14 3658.21 5858.75 2432.39
 353.231 7949.8 3824.47 6119.42 2536.55
 352.729 8331.43 4002.07 6397.6 2647.61
 352.228 8740.4 4192.07 6694.87 2766.18
 351.728 9179.33 4395.63 7012.98 2892.95
 351.23 9651.16 4614.05 7353.92 3028.69
 350.733 10159.2 4848.79 7719.88 3174.26
 350.238 10707.2 5101.47 8113.33 3330.62
 349.744 11299.2 5373.95 8537.07 3498.87
 349.251 11940.2 5668.29 8994.22 3680.22
 348.76 12635.4 5986.85 9488.33 3876.04
 348.27 13391.1 6332.28 10023.4 4087.91
 347.782 14214.1 6707.6 10604 4317.6
 347.295 15112.6 7116.26 11235.4 4567.14
 346.809 16095.7 7562.2 11923.5 4838.82
 346.324 17173.9 8049.92 12675 5135.32
 345.841 18359.6 8584.58 13498 5459.66
 345.36 19666.8 9172.16 14401.5 5815.38
 344.879 21112.1 9819.52 15395.8 6206.53
 344.4 22714.6 10534.6 16493.4 6637.85
 343.923 24496.7 11326.7 17708.4 7114.85
 343.446 26484.7 12206.4 19057.6 7643.98
 342.971 28709.6 13186.2 20560.4 8232.79
 342.498 31207.8 14280.8 22240.1 8890.19
 342.025 34022.4 15506.9 24123.9 9626.71
 341.554 37204.5 16884.4 26244.3 10454.8
 341.084 40814.4 18436.3 28639.8 11389.3
 340.616 44923.6 20189 31356.5 12447.7
 340.149 49616.4 22173.3 34449 13651.1
 339.683 54991.6 24423.9 37982.8 15024.3
 339.218 61163.7 26979.8 42035.5 16596.8
 338.754 68262.6 29883 46698.9 18403.4
 338.292 76430.8 33176.8 52080.4 20484.5
 337.831 85814.3 36901.4 58303.1 22886.1
 337.372 96542.3 41085.4 65504.2 25658.8
 336.913 108688 45732.4 73827.9 28855.1
 336.456 122199 50796.7 83411.8 32523.1
 336 136780 56149.5 94361 36696.5
 335.546 151750 61536.8 106706 41377.4
 335.092 165909 66549 120344 46514.1
 334.64 177588 70644 134976 51976.3
 334.189 185020 73267.9 150054 57538.3
 333.739 187012 74053.3 164767 62879.9
 333.291 183476 72970.3 178072 67606.2
 332.843 175375 70303 188755 71278
 332.397 164177 66488.2 195524 73450.4
 331.952 151304 61960.7 197255 73752.5
 331.508 137867 57082.7 193384 72017.8
 331.066 124637 52132.7 184252 68398.7
 330.624 112102 47312.4 171087 63353.9
 330.184 100533 42756.1 155573 57497.5
 329.745 90051.4 38542.3 139325 51412.2
 329.307 80674.8 34706.4 123553 45531.1
 328.87 72356.7 31253 108983 40112.7
 328.435 65015.6 28167.6 95947.2 35272.9
 328 58555 25424.1 84514.4 31032.2
 327.567 52875.4 22991.4 74602.8 27358.2
 327.135 47881.3 20837 66061.7 24193.5
 326.704 43485 18929.1 58718.2 21473.3
 326.274 39608.4 17238.3 52403.1 19134.6
