 Energy(eV)     Ext_yx     Sca_yx     Ext_xz     Sca_xz 427.532 493.721 265.508 479.361 261.247
 426.796 500.7 269.286 485.227 264.142
 426.062 507.808 273.131 491.199 267.084
 425.332 515.049 277.044 497.278 270.077
 424.603 522.426 281.027 503.468 273.119
 423.877 529.942 285.083 509.77 276.214
 423.154 537.601 289.212 516.188 279.362
 422.433 545.406 293.416 522.725 282.565
 421.715 553.36 297.697 529.384 285.823
 420.999 561.469 302.058 536.168 289.139
 420.285 569.735 306.5 543.079 292.513
 419.574 578.163 311.024 550.122 295.947
 418.865 586.757 315.634 557.3 299.443
 418.159 595.521 320.332 564.615 303.002
 417.455 604.46 325.118 572.072 306.626
 416.753 613.579 329.997 579.675 310.317
 416.054 622.881 334.97 587.428 314.076
 415.357 632.373 340.04 595.333 317.905
 414.663 642.059 345.209 603.396 321.805
 413.97 651.945 350.48 611.621 325.78
 413.28 662.037 355.855 620.012 329.83
 412.593 672.339 361.338 628.574 333.958
 411.907 682.858 366.932 637.311 338.166
 411.224 693.599 372.639 646.228 342.455
 410.544 704.571 378.463 655.33 346.829
 409.865 715.778 384.406 664.623 351.29
 409.189 727.227 390.473 674.112 355.84
 408.514 738.927 396.666 683.803 360.481
 407.843 750.883 402.99 693.7 365.216
 407.173 763.105 409.448 703.811 370.048
 406.505 775.598 416.044 714.142 374.979
 405.84 788.373 422.783 724.698 380.013
 405.177 801.437 429.667 735.487 385.152
 404.516 814.799 436.703 746.516 390.399
 403.857 828.468 443.894 757.791 395.758
 403.2 842.454 451.244 769.321 401.232
 402.546 856.767 458.76 781.113 406.824
 401.893 871.416 466.446 793.174 412.538
 401.243 886.414 474.307 805.514 418.378
 400.595 901.77 482.348 818.141 424.347
 399.949 917.497 490.577 831.065 430.449
 399.305 933.606 498.998 844.293 436.689
 398.663 950.111 507.618 857.837 443.07
 398.023 967.024 516.443 871.706 449.598
 397.385 984.358 525.48 885.911 456.277
 396.749 1002.13 534.736 900.463 463.112
 396.115 1020.35 544.218 915.373 470.107
 395.484 1039.04 553.935 930.653 477.268
 394.854 1058.21 563.894 946.316 484.601
 394.226 1077.88 574.102 962.374 492.111
 393.6 1098.06 584.57 978.841 499.804
 392.977 1118.79 595.306 995.731 507.686
 392.355 1140.06 606.32 1013.06 515.764
 391.735 1161.91 617.62 1030.84 524.044
 391.117 1184.36 629.219 1049.09 532.534
 390.501 1207.42 641.126 1067.83 541.24
 389.887 1231.13 653.354 1087.06 550.171
 389.275 1255.5 665.912 1106.82 559.333
 388.665 1280.55 678.815 1127.12 568.737
 388.057 1306.33 692.075 1147.98 578.389
 387.45 1332.84 705.706 1169.42 588.3
 386.846 1360.13 719.722 1191.47 598.479
 386.243 1388.22 734.137 1214.14 608.936
 385.643 1417.15 748.969 1237.46 619.68
 385.044 1446.94 764.232 1261.45 630.724
 384.447 1477.64 779.944 1286.14 642.079
 383.852 1509.28 796.124 1311.57 653.756
 383.259 1541.9 812.791 1337.75 665.769
 382.667 1575.53 829.964 1364.72 678.13
 382.077 1610.23 847.665 1392.51 690.853
 381.49 1646.04 865.915 1421.15 703.953
 380.904 1683 884.739 1450.68 717.446
 380.319 1721.17 904.161 1481.13 731.347
 379.737 1760.6 924.207 1512.56 745.673
 379.156 1801.34 944.904 1544.98 760.442
 378.578 1843.46 966.282 1578.46 775.673
 378 1887.01 988.37 1613.03 791.386
 377.425 1932.07 1011.2 1648.75 807.602
 376.851 1978.7 1034.81 1685.66 824.342
 376.28 2026.97 1059.23 1723.82 841.63
 375.71 2076.97 1084.5 1763.29 859.49
 375.141 2128.78 1110.67 1804.12 877.949
 374.574 2182.48 1137.77 1846.38 897.034
 374.009 2238.17 1165.85 1890.13 916.774
 373.446 2295.95 1194.96 1935.46 937.199
 372.885 2355.92 1225.15 1982.43 958.343
 372.325 2418.19 1256.47 2031.12 980.239
 371.767 2482.89 1288.99 2081.62 1002.92
 371.21 2550.14 1322.75 2134.02 1026.44
 370.655 2620.08 1357.84 2188.42 1050.82
 370.102 2692.84 1394.32 2244.92 1076.12
 369.55 2768.6 1432.26 2303.63 1102.38
 369 2847.5 1471.75 2364.66 1129.65
 368.452 2929.72 1512.87 2428.13 1157.98
 367.905 3015.46 1555.7 2494.19 1187.43
 367.36 3104.91 1600.36 2562.97 1218.06
 366.817 3198.29 1646.93 2634.63 1249.94
 366.275 3295.84 1695.55 2709.32 1283.14
 365.735 3397.79 1746.31 2787.22 1317.72
 365.196 3504.43 1799.36 2868.51 1353.76
 364.659 3616.04 1854.84 2953.4 1391.37
 364.124 3732.93 1912.89 3042.09 1430.61
 363.59 3855.43 1973.67 3134.83 1471.6
 363.058 3983.91 2037.36 3231.85 1514.43
 362.527 4118.75 2104.15 3333.42 1559.23
 361.997 4260.39 2174.24 3439.84 1606.11
 361.47 4409.28 2247.85 3551.41 1655.21
 360.944 4565.92 2325.22 3668.47 1706.66
 360.419 4730.86 2406.61 3791.38 1760.63
 359.896 4904.67 2492.3 3920.54 1817.28
 359.374 5088.01 2582.6 4056.38 1876.79
 358.854 5281.57 2677.84 4199.36 1939.36
 358.336 5486.11 2778.39 4349.99 2005.2
 357.819 5702.48 2884.63 4508.82 2074.55
 357.303 5931.58 2997.03 4676.46 2147.66
 356.789 6174.43 3116.03 4853.56 2224.81
 356.276 6432.13 3242.19 5040.84 2306.3
 355.765 6705.9 3376.06 5239.09 2392.47
 355.255 6997.07 3518.29 5449.18 2483.68
 354.747 7307.14 3669.58 5672.07 2580.33
 354.24 7637.74 3830.69 5908.79 2682.87
 353.735 7990.69 4002.5 6160.52 2791.77
 353.231 8368.02 4185.95 6428.54 2907.59
 352.729 8771.97 4382.1 6714.25 3030.9
 352.228 9205.06 4592.13 7019.25 3162.39
 351.728 9670.08 4817.35 7345.29 3302.77
 351.23 10170.2 5059.24 7694.31 3452.87
 350.733 10708.9 5319.43 8068.5 3613.6
 350.238 11290.3 5599.79 8470.32 3785.98
 349.744 11918.7 5902.4 8902.5 3971.16
 349.251 12599.3 6229.61 9368.14 4170.42
 348.76 13337.8 6584.08 9870.71 4385.22
 348.27 14140.7 6968.82 10414.2 4617.19
 347.782 15015.5 7387.25 11003 4868.19
 347.295 15970.8 7843.29 11642.2 5140.33
 346.809 17016.2 8341.38 12337.6 5436.01
 346.324 18163 8886.63 13095.9 5757.97
 345.841 19424.1 9484.88 13924.7 6109.37
 345.36 20814.3 10142.9 14832.7 6493.81
 344.879 22351 10868.3 15830 6915.46
 344.4 24054.2 11670.2 16928.4 7379.16
 343.923 25947.1 12558.8 18141.5 7890.5
 343.446 28056.8 13546.2 19485.1 8455.98
 342.971 30414.9 14646 20977.9 9083.23
 342.498 33058.4 15874.3 22641.7 9781.16
 342.025 36030.1 17249.6 24502.2 10560.2
 341.554 39380.1 18792.9 26589.8 11432.8
 341.084 43166.4 20528.5 28940.4 12413.5
 340.616 47455.8 22483.8 31596.7 13519.4
 340.149 52324.4 24688.9 34609.3 14771
 339.683 57857.6 27176.7 38038.3 16192.3
 339.218 64148.5 29981.2 41954.7 17811.7
 338.754 71294.5 33135.3 46442.1 19662.3
 338.292 79390.1 36666.1 51597.9 21782.5
 337.831 88514.7 40588.6 57533.5 24215.9
 337.372 98712.2 44894.6 64372.4 27010.3
 336.913 109960 49538.9 72244.2 30215.1
 336.456 122124 54420.8 81271.8 33876.2
 336 134900 59365.1 91545.9 38025.9
 335.546 147744 64107.9 103084 42666.7
 335.092 159796 68296.3 115768 47748.2
 334.64 169863 71518 129274 53140.3
 334.189 176554 73377.7 143021 58614.9
 333.739 178690 73619.9 156182 63852.2
 333.291 175865 72242.1 167801 68481.5
 332.843 168692 69497.8 176946 72136.8
 332.397 158450 65770.4 182824 74493.5
 331.952 146495 61433.1 184820 75288.7
 331.508 133910 56789.5 182592 74363.9
 331.066 121446 52074.1 176222 71739.9
 330.624 109574 47463.1 166320 67659.8
 330.184 98567.6 43080.6 153914 62546.8
 329.745 88552.2 39004.4 140185 56890.2
 329.307 79557.5 35273.3 126195 51129.8
 328.87 71550.3 31897.4 112728 45589.6
 328.435 64461.9 28867 100261 40466.7
 328 58206.3 26160.5 89021.4 35853.7
 327.567 52692.5 23750.6 79061.5 31771.1
 327.135 47832.3 21607.5 70329.3 28196.3
 326.704 43543.6 19702.1 62719.4 25084.9
 326.274 39753 18007 56106.1 22384.3
