 Energy(eV)     Ext_yx     Sca_yx     Ext_xz     Sca_xz 427.532 516.972 286.945 559.771 340.482
 426.796 524.355 291.079 566.519 344.251
 426.062 531.881 295.292 573.385 348.081
 425.332 539.553 299.586 580.37 351.974
 424.603 547.375 303.962 587.479 355.929
 423.877 555.349 308.423 594.713 359.95
 423.154 563.481 312.97 602.076 364.038
 422.433 571.774 317.606 609.571 368.193
 421.715 580.232 322.334 617.202 372.419
 420.999 588.86 327.154 624.971 376.716
 420.285 597.661 332.07 632.883 381.086
 419.574 606.641 337.084 640.941 385.532
 418.865 615.803 342.199 649.148 390.054
 418.159 625.154 347.417 657.509 394.655
 417.455 634.697 352.741 666.027 399.338
 416.753 644.438 358.173 674.707 404.103
 416.054 654.382 363.716 683.552 408.953
 415.357 664.535 369.374 692.568 413.891
 414.663 674.902 375.149 701.758 418.918
 413.97 685.489 381.044 711.127 424.037
 413.28 696.303 387.064 720.681 429.251
 412.593 707.349 393.21 730.424 434.561
 411.907 718.635 399.487 740.361 439.97
 411.224 730.166 405.898 750.497 445.481
 410.544 741.95 412.446 760.839 451.098
 409.865 753.994 419.137 771.391 456.821
 409.189 766.306 425.972 782.16 462.655
 408.514 778.892 432.958 793.152 468.603
 407.843 791.762 440.097 804.373 474.668
 407.173 804.924 447.395 815.83 480.852
 406.505 818.386 454.856 827.529 487.16
 405.84 832.157 462.485 839.478 493.594
 405.177 846.246 470.286 851.684 500.16
 404.516 860.664 478.265 864.153 506.859
 403.857 875.42 486.427 876.896 513.696
 403.2 890.524 494.778 889.918 520.676
 402.546 905.988 503.323 903.23 527.802
 401.893 921.823 512.068 916.839 535.078
 401.243 938.04 521.02 930.754 542.51
 400.595 954.651 530.184 944.986 550.102
 399.949 971.669 539.568 959.544 557.858
 399.305 989.108 549.178 974.438 565.784
 398.663 1006.98 559.021 989.678 573.885
 398.023 1025.3 569.106 1005.28 582.166
 397.385 1044.09 579.44 1021.24 590.634
 396.749 1063.35 590.03 1037.59 599.293
 396.115 1083.11 600.887 1054.34 608.151
 395.484 1103.38 612.017 1071.49 617.213
 394.854 1124.17 623.431 1089.05 626.486
 394.226 1145.52 635.138 1107.06 635.977
 393.6 1167.43 647.149 1125.51 645.693
 392.977 1189.93 659.473 1144.43 655.641
 392.355 1213.03 672.121 1163.82 665.83
 391.735 1236.77 685.105 1183.71 676.268
 391.117 1261.15 698.438 1204.12 686.963
 390.501 1286.22 712.13 1225.06 697.923
 389.887 1311.98 726.196 1246.55 709.159
 389.275 1338.47 740.648 1268.6 720.679
 388.665 1365.71 755.502 1291.25 732.494
 388.057 1393.73 770.772 1314.51 744.614
 387.45 1422.57 786.473 1338.41 757.051
 386.846 1452.25 802.622 1362.97 769.815
 386.243 1482.81 819.237 1388.2 782.919
 385.643 1514.28 836.334 1414.15 796.376
 385.044 1546.69 853.934 1440.84 810.198
 384.447 1580.09 872.055 1468.28 824.4
 383.852 1614.52 890.719 1496.52 838.995
 383.259 1650.01 909.947 1525.59 854
 382.667 1686.62 929.763 1555.52 869.429
 382.077 1724.38 950.191 1586.34 885.3
 381.49 1763.35 971.256 1618.08 901.63
 380.904 1803.58 992.984 1650.8 918.438
 380.319 1845.13 1015.4 1684.52 935.742
 379.737 1888.04 1038.55 1719.28 953.564
 379.156 1932.39 1062.44 1755.15 971.925
 378.578 1978.23 1087.12 1792.15 990.846
 378 2025.63 1112.63 1830.34 1010.35
 377.425 2074.67 1138.99 1869.77 1030.47
 376.851 2125.42 1166.25 1910.49 1051.22
 376.28 2177.96 1194.44 1952.57 1072.64
 375.71 2232.37 1223.62 1996.06 1094.75
 375.141 2288.75 1253.83 2041.03 1117.58
 374.574 2347.18 1285.11 2087.54 1141.17
 374.009 2407.78 1317.52 2135.67 1165.56
 373.446 2470.64 1351.12 2185.5 1190.77
 372.885 2535.89 1385.96 2237.1 1216.84
 372.325 2603.63 1422.11 2290.56 1243.83
 371.767 2674.01 1459.62 2345.97 1271.77
 371.21 2747.16 1498.58 2403.43 1300.7
 370.655 2823.22 1539.05 2463.04 1330.69
 370.102 2902.35 1581.12 2524.9 1361.77
 369.55 2984.71 1624.87 2589.15 1394
 369 3070.49 1670.39 2655.89 1427.45
 368.452 3159.88 1717.78 2725.26 1462.18
 367.905 3253.07 1767.15 2797.4 1498.25
 367.36 3350.28 1818.6 2872.46 1535.73
 366.817 3451.76 1872.25 2950.6 1574.7
 366.275 3557.74 1928.23 3031.99 1615.25
 365.735 3668.51 1986.68 3116.81 1657.45
 365.196 3784.34 2047.74 3205.27 1701.41
 364.659 3905.54 2111.57 3297.56 1747.21
 364.124 4032.46 2178.35 3393.92 1794.98
 363.59 4165.46 2248.25 3494.58 1844.82
 363.058 4304.92 2321.47 3599.81 1896.85
 362.527 4451.27 2398.23 3709.89 1951.22
 361.997 4604.96 2478.76 3825.12 2008.05
 361.47 4766.49 2563.3 3945.82 2067.52
 360.944 4936.39 2652.12 4072.35 2129.77
 360.419 5115.25 2745.53 4205.08 2195
 359.896 5303.7 2843.83 4344.44 2263.38
 359.374 5502.42 2947.37 4490.85 2335.15
 358.854 5712.18 3056.53 4644.82 2410.52
 358.336 5933.78 3171.71 4806.86 2489.73
 357.819 6168.13 3293.37 4977.55 2573.07
 357.303 6416.2 3422 5157.51 2660.81
 356.789 6679.08 3558.12 5347.42 2753.29
 356.276 6957.94 3702.33 5548.02 2850.84
 355.765 7254.09 3855.27 5760.12 2953.84
 355.255 7568.96 4017.65 5984.63 3062.73
 354.747 7904.13 4190.25 6222.51 3177.94
 354.24 8261.34 4373.92 6474.84 3299.98
 353.735 8642.53 4569.63 6742.8 3429.4
 353.231 9049.85 4778.41 7027.71 3566.82
 352.729 9485.69 5001.44 7331.01 3712.89
 352.228 9952.69 5240 7654.29 3868.37
 351.728 10453.8 5495.55 7999.34 4034.08
 351.23 10992.4 5769.67 8368.13 4210.92
 350.733 11572.2 6064.18 8762.85 4399.93
 350.238 12197.3 6381.06 9185.97 4602.22
 349.744 12872.5 6722.57 9640.24 4819.07
 349.251 13603 7091.23 10128.7 5051.9
 348.76 14394.9 7489.88 10654.9 5302.3
 348.27 15254.9 7921.71 11222.7 5572.06
 347.782 16190.7 8390.35 11836.5 5863.21
 347.295 17211.2 8899.88 12501.4 6178.03
 346.809 18326.4 9454.93 13222.9 6519.12
 346.324 19547.6 10060.8 14007.6 6889.41
 345.841 20888.2 10723.4 14862.9 7292.28
 345.36 22363.2 11449.7 15797.2 7731.57
 344.879 23990 12247.3 16820.2 8211.67
 344.4 25788.9 13125.3 17943.2 8737.65
 343.923 27782.9 14093.7 19179.2 9315.33
 343.446 29999.2 15164.2 20543 9951.46
 342.971 32469 16350 22052.2 10653.8
 342.498 35228.6 17666.4 23727.1 11431.5
 342.025 38320.1 19130.6 25591.3 12295
 341.554 41792.3 20762.1 27672.7 13256.7
 341.084 45701.7 22583.1 30003.9 14330.9
 340.616 50112.7 24618.2 32622.9 15534.3
 340.149 55098.6 26894.2 35574.7 16886.4
 339.683 60741 29440.1 38911.7 18410
 339.218 67127.8 32285.1 42695.2 20131.3
 338.754 74348.6 35456.7 46996.1 22080.4
 338.292 82485.4 38976 51895.6 24291.4
 337.831 91595 42849.7 57484.9 26801.7
 337.372 101680 47058.6 63862.8 29651.4
 336.913 112647 51539.2 71131 32880
 336.456 124244 56161.1 79382.6 36521.9
 336 136009 60706.2 88682.5 40597.4
 335.546 147236 64862.7 99034 45099.4
 335.092 157022 68253.8 110328 49973.6
 334.64 164399 70513.1 122276 55095.5
 334.189 168535 71387.2 134355 60251.4
 333.739 168917 70819.2 145792 65142.4
 333.291 165498 68965.8 155685 69427.2
 332.843 158768 66131.4 163209 72794
 332.397 149608 62643.4 167816 75014.1
 331.952 138984 58756.9 169272 75943.9
 331.508 127719 54647.9 167572 75506.2
 331.066 116432 50455 162894 73702.1
 330.624 105556 46302.9 155610 70644.6
 330.184 95367.8 42298.1 146286 66568.6
 329.745 86013.4 38519.9 135617 61794.3
 329.307 77546.7 35017.7 124307 56662.3
 328.87 69958.9 31814.4 112968 51473.3
 328.435 63203.1 28912.7 102058 46454.9
 328 57211.9 26301.4 91868.8 41754.9
 327.567 51909.5 23961.3 82555.2 37452.4
 327.135 47219.4 21869.2 74167.7 33575.7
 326.704 43068.7 20000.5 66689.3 30119.3
 326.274 39390.4 18331.2 60063.4 27058.5
